PE IR                   SPECTRUM    ASCII       PEDS        1.60        
  -1
~SP.SP
22/12/06
12:04:12.00
23/01/09
14:41:48.00
Administrator

650.000000
4









FRONTIER FT-IR,CPU32 MAIN 00.09.9951 07-SEPTEMBER-2011 11:49:41
MIR TGS
MIR
OPTKBR
90694
0.200000

4.000000
STRONG
RATIO
SPECTRUM
MAGNITUDE
MIRACLE ATR
DOUBLE

COMBINED


0


#HDR
-1
-1
#GR
CM-1
%T
0.00002384185791015625
0.0
4000.000000
-1.000000
3351
8
93.397601
69.697823
#DATA
4000.000000	93.328122 
3999.000000	93.325934 
3998.000000	93.324568 
3997.000000	93.324722 
3996.000000	93.326860 
3995.000000	93.330446 
3994.000000	93.333640 
3993.000000	93.334563 
3992.000000	93.332631 
3991.000000	93.329093 
3990.000000	93.326405 
3989.000000	93.326230 
3988.000000	93.328357 
3987.000000	93.331218 
3986.000000	93.333211 
3985.000000	93.333520 
3984.000000	93.331965 
3983.000000	93.328801 
3982.000000	93.324868 
3981.000000	93.321437 
3980.000000	93.319460 
3979.000000	93.318986 
3978.000000	93.319323 
3977.000000	93.319588 
3976.000000	93.319063 
3975.000000	93.317333 
3974.000000	93.314516 
3973.000000	93.311483 
3972.000000	93.309518 
3971.000000	93.309512 
3970.000000	93.311454 
3969.000000	93.314577 
3968.000000	93.317887 
3967.000000	93.320558 
3966.000000	93.321955 
3965.000000	93.321579 
3964.000000	93.319234 
3963.000000	93.315285 
3962.000000	93.310770 
3961.000000	93.307043 
3960.000000	93.305012 
3959.000000	93.304791 
3958.000000	93.305973 
3957.000000	93.308029 
3956.000000	93.310431 
3955.000000	93.312552 
3954.000000	93.313834 
3953.000000	93.314154 
3952.000000	93.313860 
3951.000000	93.313311 
3950.000000	93.312445 
3949.000000	93.310876 
3948.000000	93.308274 
3947.000000	93.304636 
3946.000000	93.300567 
3945.000000	93.297199 
3944.000000	93.295467 
3943.000000	93.295410 
3942.000000	93.296067 
3941.000000	93.296264 
3940.000000	93.295466 
3939.000000	93.293994 
3938.000000	93.292718 
3937.000000	93.292410 
3936.000000	93.293172 
3935.000000	93.294412 
3934.000000	93.295389 
3933.000000	93.295775 
3932.000000	93.295771 
3931.000000	93.295732 
3930.000000	93.295775 
3929.000000	93.295700 
3928.000000	93.295162 
3927.000000	93.293944 
3926.000000	93.292176 
3925.000000	93.290435 
3924.000000	93.289413 
3923.000000	93.289287 
3922.000000	93.289549 
3921.000000	93.289587 
3920.000000	93.289420 
3919.000000	93.289604 
3918.000000	93.290396 
3917.000000	93.291328 
3916.000000	93.291735 
3915.000000	93.291507 
3914.000000	93.291139 
3913.000000	93.291156 
3912.000000	93.291602 
3911.000000	93.292026 
3910.000000	93.291917 
3909.000000	93.291187 
3908.000000	93.290243 
3907.000000	93.289676 
3906.000000	93.289731 
3905.000000	93.289966 
3904.000000	93.289579 
3903.000000	93.288237 
3902.000000	93.286494 
3901.000000	93.285368 
3900.000000	93.285349 
3899.000000	93.285943 
3898.000000	93.286271 
3897.000000	93.285962 
3896.000000	93.285191 
3895.000000	93.284339 
3894.000000	93.283703 
3893.000000	93.283248 
3892.000000	93.282481 
3891.000000	93.281133 
3890.000000	93.279838 
3889.000000	93.279579 
3888.000000	93.280597 
3887.000000	93.282103 
3886.000000	93.283054 
3885.000000	93.283215 
3884.000000	93.283481 
3883.000000	93.284672 
3882.000000	93.286333 
3881.000000	93.287302 
3880.000000	93.287037 
3879.000000	93.286107 
3878.000000	93.285676 
3877.000000	93.286496 
3876.000000	93.288495 
3875.000000	93.291027 
3874.000000	93.293205 
3873.000000	93.294388 
3872.000000	93.294381 
3871.000000	93.293052 
3870.000000	93.290426 
3869.000000	93.287494 
3868.000000	93.285979 
3867.000000	93.286511 
3866.000000	93.287827 
3865.000000	93.288656 
3864.000000	93.289246 
3863.000000	93.290173 
3862.000000	93.291049 
3861.000000	93.290947 
3860.000000	93.290039 
3859.000000	93.290330 
3858.000000	93.294069 
3857.000000	93.302166 
3856.000000	93.313640 
3855.000000	93.324402 
3854.000000	93.328811 
3853.000000	93.326084 
3852.000000	93.322654 
3851.000000	93.323346 
3850.000000	93.324839 
3849.000000	93.322810 
3848.000000	93.318610 
3847.000000	93.315927 
3846.000000	93.315645 
3845.000000	93.316527 
3844.000000	93.317597 
3843.000000	93.318948 
3842.000000	93.321026 
3841.000000	93.323799 
3840.000000	93.326736 
3839.000000	93.329219 
3838.000000	93.330934 
3837.000000	93.332061 
3836.000000	93.332794 
3835.000000	93.332569 
3834.000000	93.330702 
3833.000000	93.327539 
3832.000000	93.324256 
3831.000000	93.321567 
3830.000000	93.319371 
3829.000000	93.317400 
3828.000000	93.315551 
3827.000000	93.313859 
3826.000000	93.312505 
3825.000000	93.311995 
3824.000000	93.312966 
3823.000000	93.315354 
3822.000000	93.317605 
3821.000000	93.317810 
3820.000000	93.316774 
3819.000000	93.317543 
3818.000000	93.320857 
3817.000000	93.323637 
3816.000000	93.322698 
3815.000000	93.318290 
3814.000000	93.313762 
3813.000000	93.310891 
3812.000000	93.307412 
3811.000000	93.302018 
3810.000000	93.297747 
3809.000000	93.297688 
3808.000000	93.300845 
3807.000000	93.303374 
3806.000000	93.303431 
3805.000000	93.303129 
3804.000000	93.304702 
3803.000000	93.306744 
3802.000000	93.305227 
3801.000000	93.298313 
3800.000000	93.290243 
3799.000000	93.287172 
3798.000000	93.288954 
3797.000000	93.290178 
3796.000000	93.287550 
3795.000000	93.281709 
3794.000000	93.274366 
3793.000000	93.266016 
3792.000000	93.256359 
3791.000000	93.246630 
3790.000000	93.239804 
3789.000000	93.238185 
3788.000000	93.241548 
3787.000000	93.247294 
3786.000000	93.251949 
3785.000000	93.253276 
3784.000000	93.251873 
3783.000000	93.250691 
3782.000000	93.252171 
3781.000000	93.255616 
3780.000000	93.257467 
3779.000000	93.255141 
3778.000000	93.250314 
3777.000000	93.246751 
3776.000000	93.245370 
3775.000000	93.243777 
3774.000000	93.240526 
3773.000000	93.237645 
3772.000000	93.238680 
3771.000000	93.245116 
3770.000000	93.254900 
3769.000000	93.264527 
3768.000000	93.271853 
3767.000000	93.275637 
3766.000000	93.274512 
3765.000000	93.268692 
3764.000000	93.260875 
3763.000000	93.253892 
3762.000000	93.248696 
3761.000000	93.245418 
3760.000000	93.245279 
3759.000000	93.249828 
3758.000000	93.258552 
3757.000000	93.268702 
3756.000000	93.277415 
3755.000000	93.284116 
3754.000000	93.290375 
3753.000000	93.297931 
3752.000000	93.308436 
3751.000000	93.322217 
3750.000000	93.336282 
3749.000000	93.345454 
3748.000000	93.346533 
3747.000000	93.341567 
3746.000000	93.335645 
3745.000000	93.328051 
3744.000000	93.312683 
3743.000000	93.293038 
3742.000000	93.279919 
3741.000000	93.272034 
3740.000000	93.261393 
3739.000000	93.250382 
3738.000000	93.242754 
3737.000000	93.233757 
3736.000000	93.221518 
3735.000000	93.213991 
3734.000000	93.218075 
3733.000000	93.228503 
3732.000000	93.233818 
3731.000000	93.229270 
3730.000000	93.218163 
3729.000000	93.203950 
3728.000000	93.187333 
3727.000000	93.170101 
3726.000000	93.155596 
3725.000000	93.145207 
3724.000000	93.137018 
3723.000000	93.127844 
3722.000000	93.117120 
3721.000000	93.108112 
3720.000000	93.103641 
3719.000000	93.102274 
3718.000000	93.099755 
3717.000000	93.093842 
3716.000000	93.086476 
3715.000000	93.081319 
3714.000000	93.079972 
3713.000000	93.079846 
3712.000000	93.075999 
3711.000000	93.065273 
3710.000000	93.048204 
3709.000000	93.026548 
3708.000000	93.001597 
3707.000000	92.976142 
3706.000000	92.953997 
3705.000000	92.936472 
3704.000000	92.920807 
3703.000000	92.902671 
3702.000000	92.880706 
3701.000000	92.858329 
3700.000000	92.840094 
3699.000000	92.826955 
3698.000000	92.815728 
3697.000000	92.802768 
3696.000000	92.787823 
3695.000000	92.774507 
3694.000000	92.767818 
3693.000000	92.770880 
3692.000000	92.782912 
3691.000000	92.797957 
3690.000000	92.806179 
3689.000000	92.801015 
3688.000000	92.785721 
3687.000000	92.769132 
3686.000000	92.755218 
3685.000000	92.740839 
3684.000000	92.722671 
3683.000000	92.702405 
3682.000000	92.684346 
3681.000000	92.670951 
3680.000000	92.662073 
3679.000000	92.657133 
3678.000000	92.656272 
3677.000000	92.657335 
3676.000000	92.653552 
3675.000000	92.640509 
3674.000000	92.623629 
3673.000000	92.610491 
3672.000000	92.599930 
3671.000000	92.586413 
3670.000000	92.567470 
3669.000000	92.545115 
3668.000000	92.524885 
3667.000000	92.508382 
3666.000000	92.490642 
3665.000000	92.469017 
3664.000000	92.446518 
3663.000000	92.426982 
3662.000000	92.412187 
3661.000000	92.401875 
3660.000000	92.394851 
3659.000000	92.390247 
3658.000000	92.387387 
3657.000000	92.384190 
3656.000000	92.377775 
3655.000000	92.367747 
3654.000000	92.356991 
3653.000000	92.348908 
3652.000000	92.346119 
3651.000000	92.348673 
3650.000000	92.350118 
3649.000000	92.343469 
3648.000000	92.330872 
3647.000000	92.317030 
3646.000000	92.300601 
3645.000000	92.280170 
3644.000000	92.259160 
3643.000000	92.241954 
3642.000000	92.229578 
3641.000000	92.220013 
3640.000000	92.211321 
3639.000000	92.203431 
3638.000000	92.197152 
3637.000000	92.192814 
3636.000000	92.190154 
3635.000000	92.187878 
3634.000000	92.184029 
3633.000000	92.178236 
3632.000000	92.173389 
3631.000000	92.173076 
3630.000000	92.175278 
3629.000000	92.170216 
3628.000000	92.152625 
3627.000000	92.131511 
3626.000000	92.115869 
3625.000000	92.104125 
3624.000000	92.093930 
3623.000000	92.087244 
3622.000000	92.086048 
3621.000000	92.090713 
3620.000000	92.099647 
3619.000000	92.109148 
3618.000000	92.116881 
3617.000000	92.123991 
3616.000000	92.131770 
3615.000000	92.139024 
3614.000000	92.143340 
3613.000000	92.143962 
3612.000000	92.143889 
3611.000000	92.147498 
3610.000000	92.155934 
3609.000000	92.166214 
3608.000000	92.174300 
3607.000000	92.178747 
3606.000000	92.181060 
3605.000000	92.183486 
3604.000000	92.187757 
3603.000000	92.194715 
3602.000000	92.203586 
3601.000000	92.212415 
3600.000000	92.219632 
3599.000000	92.224473 
3598.000000	92.226611 
3597.000000	92.226239 
3596.000000	92.224532 
3595.000000	92.222723 
3594.000000	92.220812 
3593.000000	92.218166 
3592.000000	92.215535 
3591.000000	92.215336 
3590.000000	92.219758 
3589.000000	92.228338 
3588.000000	92.236999 
3587.000000	92.241036 
3586.000000	92.238962 
3585.000000	92.232735 
3584.000000	92.226045 
3583.000000	92.222921 
3582.000000	92.225383 
3581.000000	92.231642 
3580.000000	92.237646 
3579.000000	92.240708 
3578.000000	92.241410 
3577.000000	92.241800 
3576.000000	92.242339 
3575.000000	92.241150 
3574.000000	92.236427 
3573.000000	92.228856 
3572.000000	92.221221 
3571.000000	92.215848 
3570.000000	92.212728 
3569.000000	92.209890 
3568.000000	92.205308 
3567.000000	92.199043 
3566.000000	92.193543 
3565.000000	92.191219 
3564.000000	92.192425 
3563.000000	92.195659 
3562.000000	92.198556 
3561.000000	92.199245 
3560.000000	92.197892 
3559.000000	92.196508 
3558.000000	92.196705 
3557.000000	92.198033 
3556.000000	92.198736 
3555.000000	92.197690 
3554.000000	92.195087 
3553.000000	92.191461 
3552.000000	92.186878 
3551.000000	92.181624 
3550.000000	92.176939 
3549.000000	92.174062 
3548.000000	92.172604 
3547.000000	92.170601 
3546.000000	92.166755 
3545.000000	92.162082 
3544.000000	92.158596 
3543.000000	92.156773 
3542.000000	92.155092 
3541.000000	92.151880 
3540.000000	92.147060 
3539.000000	92.142105 
3538.000000	92.138503 
3537.000000	92.136506 
3536.000000	92.135277 
3535.000000	92.133841 
3534.000000	92.131784 
3533.000000	92.129095 
3532.000000	92.125792 
3531.000000	92.121903 
3530.000000	92.117792 
3529.000000	92.114203 
3528.000000	92.111609 
3527.000000	92.109596 
3526.000000	92.107169 
3525.000000	92.103672 
3524.000000	92.099227 
3523.000000	92.094405 
3522.000000	92.089839 
3521.000000	92.086209 
3520.000000	92.084083 
3519.000000	92.083334 
3518.000000	92.082832 
3517.000000	92.081284 
3516.000000	92.078465 
3515.000000	92.075207 
3514.000000	92.072165 
3513.000000	92.068911 
3512.000000	92.064525 
3511.000000	92.058782 
3510.000000	92.052524 
3509.000000	92.046962 
3508.000000	92.042635 
3507.000000	92.039084 
3506.000000	92.035372 
3505.000000	92.030881 
3504.000000	92.025745 
3503.000000	92.020591 
3502.000000	92.015869 
3501.000000	92.011510 
3500.000000	92.007273 
3499.000000	92.003202 
3498.000000	91.999647 
3497.000000	91.996848 
3496.000000	91.994521 
3495.000000	91.991794 
3494.000000	91.987718 
3493.000000	91.982188 
3492.000000	91.976471 
3491.000000	91.972451 
3490.000000	91.971059 
3489.000000	91.971535 
3488.000000	91.971930 
3487.000000	91.970662 
3486.000000	91.967438 
3485.000000	91.962858 
3484.000000	91.957704 
3483.000000	91.952555 
3482.000000	91.947787 
3481.000000	91.943523 
3480.000000	91.939542 
3479.000000	91.935415 
3478.000000	91.930812 
3477.000000	91.925709 
3476.000000	91.920424 
3475.000000	91.915551 
3474.000000	91.911708 
3473.000000	91.909068 
3472.000000	91.907047 
3471.000000	91.904631 
3470.000000	91.901227 
3469.000000	91.897186 
3468.000000	91.893483 
3467.000000	91.890851 
3466.000000	91.889179 
3465.000000	91.887583 
3464.000000	91.885032 
3463.000000	91.881062 
3462.000000	91.876159 
3461.000000	91.871467 
3460.000000	91.867821 
3459.000000	91.864992 
3458.000000	91.862004 
3457.000000	91.858189 
3456.000000	91.853784 
3455.000000	91.849526 
3454.000000	91.845932 
3453.000000	91.843063 
3452.000000	91.840688 
3451.000000	91.838322 
3450.000000	91.835313 
3449.000000	91.831264 
3448.000000	91.826557 
3447.000000	91.822249 
3446.000000	91.819067 
3445.000000	91.816517 
3444.000000	91.813140 
3443.000000	91.807678 
3442.000000	91.800143 
3441.000000	91.792070 
3440.000000	91.785493 
3439.000000	91.781212 
3438.000000	91.778052 
3437.000000	91.773995 
3436.000000	91.768457 
3435.000000	91.763056 
3434.000000	91.759878 
3433.000000	91.759393 
3432.000000	91.760273 
3431.000000	91.760822 
3430.000000	91.760346 
3429.000000	91.759157 
3428.000000	91.757642 
3427.000000	91.755641 
3426.000000	91.752691 
3425.000000	91.748747 
3424.000000	91.744456 
3423.000000	91.740585 
3422.000000	91.737239 
3421.000000	91.733956 
3420.000000	91.730613 
3419.000000	91.727846 
3418.000000	91.726314 
3417.000000	91.725727 
3416.000000	91.724836 
3415.000000	91.722452 
3414.000000	91.718396 
3413.000000	91.713627 
3412.000000	91.709518 
3411.000000	91.706760 
3410.000000	91.704852 
3409.000000	91.702760 
3408.000000	91.700168 
3407.000000	91.697907 
3406.000000	91.696965 
3405.000000	91.697336 
3404.000000	91.697986 
3403.000000	91.697748 
3402.000000	91.696171 
3401.000000	91.693746 
3400.000000	91.691648 
3399.000000	91.691009 
3398.000000	91.692015 
3397.000000	91.693594 
3396.000000	91.694176 
3395.000000	91.693054 
3394.000000	91.690844 
3393.000000	91.688855 
3392.000000	91.688031 
3391.000000	91.688451 
3390.000000	91.689499 
3389.000000	91.690309 
3388.000000	91.690298 
3387.000000	91.689544 
3386.000000	91.688695 
3385.000000	91.688350 
3384.000000	91.688525 
3383.000000	91.688848 
3382.000000	91.689181 
3381.000000	91.689760 
3380.000000	91.690683 
3379.000000	91.691512 
3378.000000	91.691602 
3377.000000	91.690799 
3376.000000	91.689760 
3375.000000	91.689579 
3374.000000	91.691049 
3373.000000	91.694209 
3372.000000	91.698370 
3371.000000	91.702483 
3370.000000	91.705643 
3369.000000	91.707322 
3368.000000	91.707454 
3367.000000	91.706544 
3366.000000	91.705618 
3365.000000	91.705735 
3364.000000	91.707357 
3363.000000	91.710198 
3362.000000	91.713550 
3361.000000	91.716758 
3360.000000	91.719430 
3359.000000	91.721416 
3358.000000	91.722805 
3357.000000	91.723889 
3356.000000	91.724951 
3355.000000	91.726015 
3354.000000	91.726827 
3353.000000	91.727134 
3352.000000	91.727063 
3351.000000	91.727219 
3350.000000	91.728290 
3349.000000	91.730469 
3348.000000	91.733223 
3347.000000	91.735879 
3346.000000	91.738464 
3345.000000	91.741555 
3344.000000	91.745326 
3343.000000	91.749102 
3342.000000	91.752027 
3341.000000	91.753961 
3340.000000	91.755481 
3339.000000	91.757242 
3338.000000	91.759610 
3337.000000	91.762697 
3336.000000	91.766259 
3335.000000	91.769488 
3334.000000	91.771422 
3333.000000	91.771840 
3332.000000	91.771628 
3331.000000	91.772200 
3330.000000	91.774448 
3329.000000	91.778284 
3328.000000	91.782850 
3327.000000	91.786923 
3326.000000	91.789497 
3325.000000	91.790356 
3324.000000	91.790273 
3323.000000	91.790544 
3322.000000	91.792118 
3321.000000	91.795103 
3320.000000	91.798897 
3319.000000	91.802638 
3318.000000	91.805565 
3317.000000	91.807206 
3316.000000	91.807480 
3315.000000	91.806734 
3314.000000	91.805553 
3313.000000	91.804326 
3312.000000	91.803079 
3311.000000	91.801979 
3310.000000	91.801962 
3309.000000	91.804266 
3308.000000	91.809025 
3307.000000	91.814597 
3306.000000	91.818844 
3305.000000	91.821282 
3304.000000	91.823272 
3303.000000	91.826138 
3302.000000	91.829603 
3301.000000	91.832379 
3300.000000	91.833913 
3299.000000	91.834930 
3298.000000	91.836449 
3297.000000	91.838855 
3296.000000	91.842051 
3295.000000	91.845831 
3294.000000	91.849648 
3293.000000	91.852398 
3292.000000	91.853172 
3291.000000	91.852260 
3290.000000	91.851258 
3289.000000	91.851808 
3288.000000	91.854234 
3287.000000	91.857485 
3286.000000	91.860095 
3285.000000	91.861356 
3284.000000	91.861615 
3283.000000	91.861767 
3282.000000	91.862553 
3281.000000	91.864195 
3280.000000	91.866491 
3279.000000	91.869023 
3278.000000	91.871452 
3277.000000	91.873737 
3276.000000	91.876099 
3275.000000	91.878719 
3274.000000	91.881483 
3273.000000	91.884068 
3272.000000	91.886286 
3271.000000	91.888275 
3270.000000	91.890332 
3269.000000	91.892646 
3268.000000	91.895216 
3267.000000	91.897888 
3266.000000	91.900381 
3265.000000	91.902400 
3264.000000	91.903843 
3263.000000	91.904881 
3262.000000	91.905838 
3261.000000	91.906992 
3260.000000	91.908526 
3259.000000	91.910430 
3258.000000	91.912356 
3257.000000	91.913847 
3256.000000	91.915007 
3255.000000	91.916726 
3254.000000	91.919847 
3253.000000	91.924174 
3252.000000	91.928639 
3251.000000	91.932399 
3250.000000	91.935321 
3249.000000	91.937512 
3248.000000	91.939069 
3247.000000	91.940379 
3246.000000	91.941983 
3245.000000	91.943657 
3244.000000	91.944193 
3243.000000	91.942889 
3242.000000	91.941012 
3241.000000	91.940888 
3240.000000	91.943370 
3239.000000	91.946939 
3238.000000	91.949215 
3237.000000	91.949327 
3236.000000	91.948593 
3235.000000	91.949118 
3234.000000	91.951951 
3233.000000	91.956563 
3232.000000	91.961690 
3231.000000	91.966458 
3230.000000	91.970750 
3229.000000	91.974721 
3228.000000	91.978373 
3227.000000	91.981650 
3226.000000	91.984618 
3225.000000	91.987288 
3224.000000	91.989497 
3223.000000	91.991274 
3222.000000	91.993166 
3221.000000	91.995865 
3220.000000	91.999408 
3219.000000	92.003061 
3218.000000	92.006086 
3217.000000	92.008487 
3216.000000	92.010872 
3215.000000	92.013751 
3214.000000	92.017115 
3213.000000	92.020650 
3212.000000	92.024123 
3211.000000	92.027522 
3210.000000	92.030925 
3209.000000	92.034366 
3208.000000	92.037831 
3207.000000	92.041302 
3206.000000	92.044753 
3205.000000	92.048163 
3204.000000	92.051547 
3203.000000	92.054958 
3202.000000	92.058431 
3201.000000	92.061959 
3200.000000	92.065529 
3199.000000	92.069143 
3198.000000	92.072791 
3197.000000	92.076456 
3196.000000	92.080123 
3195.000000	92.083786 
3194.000000	92.087447 
3193.000000	92.091111 
3192.000000	92.094780 
3191.000000	92.098450 
3190.000000	92.102113 
3189.000000	92.105767 
3188.000000	92.109415 
3187.000000	92.113067 
3186.000000	92.116735 
3185.000000	92.120429 
3184.000000	92.124153 
3183.000000	92.127900 
3182.000000	92.131659 
3181.000000	92.135426 
3180.000000	92.139200 
3179.000000	92.142986 
3178.000000	92.146785 
3177.000000	92.150591 
3176.000000	92.154400 
3175.000000	92.158205 
3174.000000	92.162005 
3173.000000	92.165802 
3172.000000	92.169595 
3171.000000	92.173384 
3170.000000	92.177169 
3169.000000	92.180954 
3168.000000	92.184745 
3167.000000	92.188549 
3166.000000	92.192372 
3165.000000	92.196216 
3164.000000	92.200080 
3163.000000	92.203960 
3162.000000	92.207850 
3161.000000	92.211744 
3160.000000	92.215636 
3159.000000	92.219520 
3158.000000	92.223397 
3157.000000	92.227272 
3156.000000	92.231140 
3155.000000	92.234988 
3154.000000	92.238828 
3153.000000	92.242681 
3152.000000	92.246542 
3151.000000	92.250362 
3150.000000	92.254114 
3149.000000	92.257843 
3148.000000	92.261623 
3147.000000	92.265494 
3146.000000	92.269467 
3145.000000	92.273552 
3144.000000	92.277715 
3143.000000	92.281800 
3142.000000	92.285622 
3141.000000	92.289156 
3140.000000	92.292552 
3139.000000	92.295998 
3138.000000	92.299563 
3137.000000	92.303205 
3136.000000	92.306841 
3135.000000	92.310397 
3134.000000	92.313853 
3133.000000	92.317263 
3132.000000	92.320738 
3131.000000	92.324334 
3130.000000	92.328003 
3129.000000	92.331645 
3128.000000	92.335201 
3127.000000	92.338689 
3126.000000	92.342154 
3125.000000	92.345614 
3124.000000	92.349053 
3123.000000	92.352448 
3122.000000	92.355792 
3121.000000	92.359096 
3120.000000	92.362377 
3119.000000	92.365649 
3118.000000	92.368920 
3117.000000	92.372193 
3116.000000	92.375467 
3115.000000	92.378735 
3114.000000	92.381991 
3113.000000	92.385225 
3112.000000	92.388438 
3111.000000	92.391643 
3110.000000	92.394865 
3109.000000	92.398115 
3108.000000	92.401348 
3107.000000	92.404466 
3106.000000	92.407407 
3105.000000	92.410276 
3104.000000	92.413308 
3103.000000	92.416662 
3102.000000	92.420230 
3101.000000	92.423637 
3100.000000	92.426582 
3099.000000	92.429127 
3098.000000	92.431705 
3097.000000	92.434602 
3096.000000	92.437451 
3095.000000	92.439486 
3094.000000	92.440614 
3093.000000	92.441975 
3092.000000	92.444882 
3091.000000	92.449349 
3090.000000	92.454078 
3089.000000	92.457947 
3088.000000	92.460933 
3087.000000	92.463494 
3086.000000	92.465628 
3085.000000	92.467118 
3084.000000	92.468506 
3083.000000	92.471055 
3082.000000	92.475406 
3081.000000	92.480674 
3080.000000	92.485407 
3079.000000	92.489341 
3078.000000	92.493624 
3077.000000	92.499182 
3076.000000	92.505374 
3075.000000	92.510596 
3074.000000	92.513800 
3073.000000	92.515067 
3072.000000	92.515215 
3071.000000	92.515562 
3070.000000	92.517683 
3069.000000	92.522218 
3068.000000	92.527430 
3067.000000	92.529783 
3066.000000	92.526888 
3065.000000	92.520046 
3064.000000	92.513658 
3063.000000	92.511856 
3062.000000	92.515534 
3061.000000	92.522239 
3060.000000	92.528676 
3059.000000	92.533546 
3058.000000	92.538018 
3057.000000	92.543525 
3056.000000	92.549380 
3055.000000	92.552908 
3054.000000	92.551735 
3053.000000	92.545455 
3052.000000	92.535679 
3051.000000	92.525598 
3050.000000	92.519213 
3049.000000	92.519198 
3048.000000	92.524340 
3047.000000	92.529869 
3046.000000	92.531445 
3045.000000	92.528640 
3044.000000	92.524201 
3043.000000	92.520750 
3042.000000	92.519077 
3041.000000	92.518760 
3040.000000	92.518802 
3039.000000	92.517611 
3038.000000	92.513765 
3037.000000	92.507337 
3036.000000	92.499691 
3035.000000	92.491736 
3034.000000	92.483140 
3033.000000	92.473522 
3032.000000	92.463560 
3031.000000	92.454125 
3030.000000	92.444581 
3029.000000	92.432868 
3028.000000	92.417519 
3027.000000	92.399220 
3026.000000	92.380330 
3025.000000	92.363060 
3024.000000	92.348096 
3023.000000	92.334743 
3022.000000	92.322045 
3021.000000	92.309533 
3020.000000	92.296929 
3019.000000	92.283527 
3018.000000	92.268353 
3017.000000	92.251204 
3016.000000	92.233326 
3015.000000	92.216480 
3014.000000	92.200884 
3013.000000	92.184191 
3012.000000	92.163321 
3011.000000	92.137875 
3010.000000	92.111259 
3009.000000	92.087409 
3008.000000	92.066424 
3007.000000	92.044386 
3006.000000	92.017926 
3005.000000	91.988172 
3004.000000	91.959588 
3003.000000	91.935580 
3002.000000	91.916089 
3001.000000	91.898823 
3000.000000	91.881547 
2999.000000	91.863220 
2998.000000	91.844347 
2997.000000	91.826811 
2996.000000	91.812002 
2995.000000	91.797555 
2994.000000	91.776222 
2993.000000	91.740037 
2992.000000	91.687596 
2991.000000	91.627732 
2990.000000	91.575091 
2989.000000	91.540856 
2988.000000	91.526941 
2987.000000	91.527675 
2986.000000	91.535343 
2985.000000	91.543667 
2984.000000	91.547663 
2983.000000	91.543595 
2982.000000	91.531065 
2981.000000	91.514295 
2980.000000	91.499542 
2979.000000	91.490648 
2978.000000	91.487134 
2977.000000	91.485908 
2976.000000	91.484150 
2975.000000	91.481395 
2974.000000	91.480437 
2973.000000	91.486400 
2972.000000	91.503336 
2971.000000	91.530556 
2970.000000	91.562730 
2969.000000	91.594704 
2968.000000	91.626163 
2967.000000	91.660766 
2966.000000	91.700513 
2965.000000	91.742025 
2964.000000	91.778983 
2963.000000	91.807571 
2962.000000	91.828598 
2961.000000	91.844969 
2960.000000	91.859061 
2959.000000	91.873070 
2958.000000	91.889670 
2957.000000	91.909792 
2956.000000	91.930294 
2955.000000	91.946577 
2954.000000	91.958423 
2953.000000	91.971062 
2952.000000	91.988767 
2951.000000	92.008605 
2950.000000	92.022675 
2949.000000	92.026293 
2948.000000	92.022197 
2947.000000	92.017112 
2946.000000	92.015953 
2945.000000	92.019634 
2944.000000	92.026493 
2943.000000	92.034205 
2942.000000	92.040710 
2941.000000	92.044516 
2940.000000	92.044745 
2939.000000	92.041367 
2938.000000	92.035863 
2937.000000	92.031423 
2936.000000	92.031442 
2935.000000	92.037029 
2934.000000	92.046132 
2933.000000	92.055276 
2932.000000	92.061941 
2931.000000	92.065401 
2930.000000	92.066409 
2929.000000	92.066804 
2928.000000	92.068663 
2927.000000	92.072646 
2926.000000	92.077305 
2925.000000	92.080941 
2924.000000	92.084114 
2923.000000	92.089242 
2922.000000	92.097326 
2921.000000	92.106023 
2920.000000	92.111852 
2919.000000	92.113560 
2918.000000	92.112217 
2917.000000	92.108302 
2916.000000	92.100259 
2915.000000	92.086570 
2914.000000	92.068288 
2913.000000	92.048541 
2912.000000	92.029928 
2911.000000	92.013205 
2910.000000	91.998091 
2909.000000	91.984224 
2908.000000	91.971226 
2907.000000	91.958746 
2906.000000	91.946644 
2905.000000	91.934458 
2904.000000	91.920879 
2903.000000	91.905337 
2902.000000	91.891006 
2901.000000	91.884895 
2900.000000	91.892976 
2899.000000	91.914424 
2898.000000	91.940950 
2897.000000	91.962426 
2896.000000	91.973846 
2895.000000	91.977465 
2894.000000	91.979135 
2893.000000	91.983106 
2892.000000	91.989896 
2891.000000	91.997858 
2890.000000	92.005510 
2889.000000	92.011952 
2888.000000	92.016210 
2887.000000	92.017950 
2886.000000	92.019181 
2885.000000	92.023937 
2884.000000	92.035220 
2883.000000	92.052523 
2882.000000	92.072713 
2881.000000	92.092974 
2880.000000	92.112426 
2879.000000	92.131412 
2878.000000	92.150082 
2877.000000	92.167777 
2876.000000	92.183485 
2875.000000	92.196922 
2874.000000	92.209178 
2873.000000	92.221935 
2872.000000	92.235976 
2871.000000	92.250908 
2870.000000	92.266260 
2869.000000	92.281837 
2868.000000	92.296819 
2867.000000	92.309966 
2866.000000	92.321779 
2865.000000	92.335352 
2864.000000	92.353670 
2863.000000	92.376613 
2862.000000	92.401707 
2861.000000	92.426993 
2860.000000	92.451612 
2859.000000	92.474372 
2858.000000	92.494278 
2857.000000	92.512748 
2856.000000	92.532984 
2855.000000	92.555803 
2854.000000	92.577662 
2853.000000	92.594349 
2852.000000	92.605671 
2851.000000	92.615295 
2850.000000	92.626451 
2849.000000	92.638661 
2848.000000	92.648584 
2847.000000	92.653332 
2846.000000	92.653122 
2845.000000	92.651487 
2844.000000	92.652950 
2843.000000	92.659703 
2842.000000	92.669947 
2841.000000	92.679528 
2840.000000	92.685563 
2839.000000	92.688830 
2838.000000	92.692694 
2837.000000	92.699546 
2836.000000	92.708331 
2835.000000	92.715848 
2834.000000	92.720317 
2833.000000	92.723015 
2832.000000	92.726355 
2831.000000	92.731229 
2830.000000	92.736741 
2829.000000	92.741623 
2828.000000	92.744984 
2827.000000	92.746443 
2826.000000	92.746954 
2825.000000	92.749321 
2824.000000	92.756390 
2823.000000	92.768129 
2822.000000	92.781171 
2821.000000	92.791449 
2820.000000	92.796835 
2819.000000	92.797383 
2818.000000	92.794457 
2817.000000	92.790355 
2816.000000	92.787777 
2815.000000	92.788433 
2814.000000	92.791954 
2813.000000	92.796422 
2812.000000	92.800011 
2811.000000	92.802226 
2810.000000	92.804004 
2809.000000	92.806836 
2808.000000	92.811578 
2807.000000	92.817783 
2806.000000	92.824090 
2805.000000	92.829234 
2804.000000	92.832798 
2803.000000	92.835345 
2802.000000	92.838042 
2801.000000	92.841830 
2800.000000	92.846501 
2799.000000	92.850700 
2798.000000	92.853190 
2797.000000	92.853992 
2796.000000	92.854115 
2795.000000	92.854358 
2794.000000	92.854777 
2793.000000	92.855253 
2792.000000	92.856081 
2791.000000	92.857882 
2790.000000	92.861139 
2789.000000	92.865835 
2788.000000	92.871190 
2787.000000	92.875794 
2786.000000	92.878580 
2785.000000	92.879751 
2784.000000	92.880623 
2783.000000	92.882270 
2782.000000	92.884448 
2781.000000	92.886187 
2780.000000	92.887058 
2779.000000	92.887487 
2778.000000	92.888114 
2777.000000	92.889259 
2776.000000	92.890915 
2775.000000	92.892935 
2774.000000	92.895133 
2773.000000	92.897402 
2772.000000	92.899791 
2771.000000	92.902348 
2770.000000	92.904872 
2769.000000	92.906953 
2768.000000	92.908371 
2767.000000	92.909376 
2766.000000	92.910524 
2765.000000	92.912174 
2764.000000	92.914196 
2763.000000	92.916170 
2762.000000	92.917818 
2761.000000	92.919240 
2760.000000	92.920684 
2759.000000	92.922233 
2758.000000	92.923779 
2757.000000	92.925256 
2756.000000	92.926723 
2755.000000	92.928249 
2754.000000	92.929817 
2753.000000	92.931377 
2752.000000	92.932908 
2751.000000	92.934440 
2750.000000	92.935998 
2749.000000	92.937572 
2748.000000	92.939141 
2747.000000	92.940694 
2746.000000	92.942238 
2745.000000	92.943780 
2744.000000	92.945327 
2743.000000	92.946885 
2742.000000	92.948453 
2741.000000	92.950029 
2740.000000	92.951608 
2739.000000	92.953189 
2738.000000	92.954773 
2737.000000	92.956362 
2736.000000	92.957956 
2735.000000	92.959546 
2734.000000	92.961122 
2733.000000	92.962679 
2732.000000	92.964223 
2731.000000	92.965764 
2730.000000	92.967312 
2729.000000	92.968872 
2728.000000	92.970441 
2727.000000	92.972013 
2726.000000	92.973581 
2725.000000	92.975141 
2724.000000	92.976692 
2723.000000	92.978232 
2722.000000	92.979762 
2721.000000	92.981288 
2720.000000	92.982814 
2719.000000	92.984344 
2718.000000	92.985871 
2717.000000	92.987385 
2716.000000	92.988879 
2715.000000	92.990350 
2714.000000	92.991796 
2713.000000	92.993213 
2712.000000	92.994595 
2711.000000	92.995950 
2710.000000	92.997307 
2709.000000	92.998683 
2708.000000	93.000072 
2707.000000	93.001453 
2706.000000	93.002800 
2705.000000	93.004099 
2704.000000	93.005384 
2703.000000	93.006730 
2702.000000	93.008156 
2701.000000	93.009543 
2700.000000	93.010736 
2699.000000	93.011727 
2698.000000	93.012687 
2697.000000	93.013804 
2696.000000	93.015102 
2695.000000	93.016428 
2694.000000	93.017563 
2693.000000	93.018394 
2692.000000	93.019074 
2691.000000	93.020017 
2690.000000	93.021575 
2689.000000	93.023653 
2688.000000	93.025615 
2687.000000	93.026910 
2686.000000	93.027620 
2685.000000	93.028285 
2684.000000	93.029135 
2683.000000	93.029841 
2682.000000	93.030123 
2681.000000	93.030220 
2680.000000	93.030579 
2679.000000	93.031305 
2678.000000	93.032096 
2677.000000	93.032581 
2676.000000	93.032640 
2675.000000	93.032514 
2674.000000	93.032669 
2673.000000	93.033465 
2672.000000	93.034911 
2671.000000	93.036813 
2670.000000	93.039068 
2669.000000	93.041570 
2668.000000	93.043953 
2667.000000	93.045769 
2666.000000	93.046977 
2665.000000	93.047927 
2664.000000	93.048760 
2663.000000	93.049257 
2662.000000	93.049465 
2661.000000	93.049989 
2660.000000	93.051275 
2659.000000	93.052939 
2658.000000	93.054203 
2657.000000	93.054851 
2656.000000	93.055320 
2655.000000	93.055948 
2654.000000	93.056645 
2653.000000	93.057286 
2652.000000	93.057949 
2651.000000	93.058656 
2650.000000	93.059238 
2649.000000	93.059616 
2648.000000	93.059937 
2647.000000	93.060334 
2646.000000	93.060743 
2645.000000	93.061112 
2644.000000	93.061607 
2643.000000	93.062434 
2642.000000	93.063578 
2641.000000	93.064823 
2640.000000	93.065907 
2639.000000	93.066689 
2638.000000	93.067224 
2637.000000	93.067697 
2636.000000	93.068280 
2635.000000	93.068994 
2634.000000	93.069753 
2633.000000	93.070480 
2632.000000	93.071174 
2631.000000	93.071873 
2630.000000	93.072586 
2629.000000	93.073298 
2628.000000	93.073997 
2627.000000	93.074695 
2626.000000	93.075400 
2625.000000	93.076087 
2624.000000	93.076723 
2623.000000	93.077299 
2622.000000	93.077837 
2621.000000	93.078367 
2620.000000	93.078909 
2619.000000	93.079472 
2618.000000	93.080057 
2617.000000	93.080662 
2616.000000	93.081276 
2615.000000	93.081891 
2614.000000	93.082516 
2613.000000	93.083172 
2612.000000	93.083871 
2611.000000	93.084606 
2610.000000	93.085354 
2609.000000	93.086100 
2608.000000	93.086851 
2607.000000	93.087618 
2606.000000	93.088402 
2605.000000	93.089183 
2604.000000	93.089926 
2603.000000	93.090617 
2602.000000	93.091277 
2601.000000	93.091953 
2600.000000	93.092662 
2599.000000	93.093376 
2598.000000	93.094063 
2597.000000	93.094751 
2596.000000	93.095511 
2595.000000	93.096372 
2594.000000	93.097257 
2593.000000	93.098040 
2592.000000	93.098652 
2591.000000	93.099113 
2590.000000	93.099509 
2589.000000	93.099941 
2588.000000	93.100468 
2587.000000	93.101079 
2586.000000	93.101693 
2585.000000	93.102227 
2584.000000	93.102642 
2583.000000	93.102942 
2582.000000	93.103188 
2581.000000	93.103528 
2580.000000	93.104111 
2579.000000	93.104938 
2578.000000	93.105843 
2577.000000	93.106662 
2576.000000	93.107400 
2575.000000	93.108157 
2574.000000	93.108977 
2573.000000	93.109786 
2572.000000	93.110450 
2571.000000	93.110866 
2570.000000	93.111067 
2569.000000	93.111290 
2568.000000	93.111798 
2567.000000	93.112565 
2566.000000	93.113216 
2565.000000	93.113430 
2564.000000	93.113292 
2563.000000	93.113155 
2562.000000	93.113229 
2561.000000	93.113548 
2560.000000	93.114194 
2559.000000	93.115220 
2558.000000	93.116358 
2557.000000	93.117122 
2556.000000	93.117360 
2555.000000	93.117433 
2554.000000	93.117728 
2553.000000	93.118099 
2552.000000	93.118031 
2551.000000	93.117257 
2550.000000	93.116093 
2549.000000	93.115252 
2548.000000	93.115251 
2547.000000	93.116016 
2546.000000	93.116932 
2545.000000	93.117472 
2544.000000	93.117762 
2543.000000	93.118345 
2542.000000	93.119534 
2541.000000	93.121149 
2540.000000	93.122789 
2539.000000	93.124163 
2538.000000	93.125094 
2537.000000	93.125384 
2536.000000	93.124910 
2535.000000	93.123856 
2534.000000	93.122768 
2533.000000	93.122202 
2532.000000	93.122281 
2531.000000	93.122657 
2530.000000	93.122898 
2529.000000	93.122876 
2528.000000	93.122723 
2527.000000	93.122574 
2526.000000	93.122548 
2525.000000	93.122899 
2524.000000	93.123878 
2523.000000	93.125386 
2522.000000	93.126903 
2521.000000	93.127886 
2520.000000	93.128134 
2519.000000	93.127758 
2518.000000	93.127043 
2517.000000	93.126405 
2516.000000	93.126252 
2515.000000	93.126701 
2514.000000	93.127542 
2513.000000	93.128584 
2512.000000	93.129910 
2511.000000	93.131640 
2510.000000	93.133539 
2509.000000	93.135026 
2508.000000	93.135583 
2507.000000	93.135137 
2506.000000	93.134221 
2505.000000	93.133842 
2504.000000	93.134862 
2503.000000	93.137288 
2502.000000	93.140037 
2501.000000	93.141708 
2500.000000	93.141770 
2499.000000	93.140762 
2498.000000	93.139618 
2497.000000	93.138811 
2496.000000	93.138178 
2495.000000	93.137358 
2494.000000	93.136311 
2493.000000	93.135539 
2492.000000	93.135729 
2491.000000	93.137048 
2490.000000	93.138853 
2489.000000	93.140206 
2488.000000	93.140660 
2487.000000	93.140372 
2486.000000	93.139706 
2485.000000	93.139057 
2484.000000	93.138914 
2483.000000	93.139649 
2482.000000	93.141132 
2481.000000	93.142768 
2480.000000	93.144047 
2479.000000	93.144897 
2478.000000	93.145512 
2477.000000	93.146119 
2476.000000	93.146960 
2475.000000	93.148137 
2474.000000	93.149351 
2473.000000	93.150083 
2472.000000	93.150200 
2471.000000	93.150160 
2470.000000	93.150431 
2469.000000	93.150916 
2468.000000	93.151199 
2467.000000	93.151195 
2466.000000	93.151224 
2465.000000	93.151522 
2464.000000	93.151931 
2463.000000	93.152122 
2462.000000	93.151967 
2461.000000	93.151670 
2460.000000	93.151608 
2459.000000	93.151990 
2458.000000	93.152683 
2457.000000	93.153342 
2456.000000	93.153733 
2455.000000	93.153897 
2454.000000	93.154027 
2453.000000	93.154245 
2452.000000	93.154516 
2451.000000	93.154773 
2450.000000	93.155011 
2449.000000	93.155247 
2448.000000	93.155485 
2447.000000	93.155726 
2446.000000	93.155983 
2445.000000	93.156255 
2444.000000	93.156518 
2443.000000	93.156753 
2442.000000	93.156965 
2441.000000	93.157156 
2440.000000	93.157330 
2439.000000	93.157494 
2438.000000	93.157652 
2437.000000	93.157811 
2436.000000	93.157974 
2435.000000	93.158139 
2434.000000	93.158303 
2433.000000	93.158462 
2432.000000	93.158616 
2431.000000	93.158773 
2430.000000	93.158942 
2429.000000	93.159130 
2428.000000	93.159341 
2427.000000	93.159573 
2426.000000	93.159824 
2425.000000	93.160091 
2424.000000	93.160368 
2423.000000	93.160651 
2422.000000	93.160933 
2421.000000	93.161209 
2420.000000	93.161477 
2419.000000	93.161739 
2418.000000	93.162001 
2417.000000	93.162268 
2416.000000	93.162547 
2415.000000	93.162840 
2414.000000	93.163152 
2413.000000	93.163484 
2412.000000	93.163835 
2411.000000	93.164203 
2410.000000	93.164584 
2409.000000	93.164978 
2408.000000	93.165389 
2407.000000	93.165819 
2406.000000	93.166264 
2405.000000	93.166717 
2404.000000	93.167168 
2403.000000	93.167612 
2402.000000	93.168050 
2401.000000	93.168492 
2400.000000	93.168949 
2399.000000	93.169422 
2398.000000	93.169907 
2397.000000	93.170403 
2396.000000	93.170912 
2395.000000	93.171441 
2394.000000	93.171997 
2393.000000	93.172584 
2392.000000	93.173198 
2391.000000	93.173824 
2390.000000	93.174441 
2389.000000	93.175028 
2388.000000	93.175576 
2387.000000	93.176093 
2386.000000	93.176592 
2385.000000	93.177082 
2384.000000	93.177566 
2383.000000	93.178042 
2382.000000	93.178508 
2381.000000	93.178969 
2380.000000	93.179430 
2379.000000	93.179894 
2378.000000	93.180363 
2377.000000	93.180836 
2376.000000	93.181317 
2375.000000	93.181806 
2374.000000	93.182303 
2373.000000	93.182799 
2372.000000	93.183284 
2371.000000	93.183749 
2370.000000	93.184191 
2369.000000	93.184618 
2368.000000	93.185043 
2367.000000	93.185468 
2366.000000	93.185886 
2365.000000	93.186277 
2364.000000	93.186634 
2363.000000	93.186959 
2362.000000	93.187270 
2361.000000	93.187587 
2360.000000	93.187925 
2359.000000	93.188283 
2358.000000	93.188648 
2357.000000	93.189005 
2356.000000	93.189349 
2355.000000	93.189681 
2354.000000	93.190000 
2353.000000	93.190306 
2352.000000	93.190589 
2351.000000	93.190836 
2350.000000	93.191037 
2349.000000	93.191203 
2348.000000	93.191372 
2347.000000	93.191596 
2346.000000	93.191908 
2345.000000	93.192307 
2344.000000	93.192761 
2343.000000	93.193235 
2342.000000	93.193713 
2341.000000	93.194194 
2340.000000	93.194686 
2339.000000	93.195190 
2338.000000	93.195703 
2337.000000	93.196219 
2336.000000	93.196732 
2335.000000	93.197240 
2334.000000	93.197739 
2333.000000	93.198223 
2332.000000	93.198691 
2331.000000	93.199147 
2330.000000	93.199596 
2329.000000	93.200046 
2328.000000	93.200505 
2327.000000	93.200978 
2326.000000	93.201461 
2325.000000	93.201944 
2324.000000	93.202428 
2323.000000	93.202920 
2322.000000	93.203434 
2321.000000	93.203975 
2320.000000	93.204537 
2319.000000	93.205106 
2318.000000	93.205667 
2317.000000	93.206207 
2316.000000	93.206726 
2315.000000	93.207231 
2314.000000	93.207737 
2313.000000	93.208254 
2312.000000	93.208780 
2311.000000	93.209308 
2310.000000	93.209829 
2309.000000	93.210342 
2308.000000	93.210851 
2307.000000	93.211359 
2306.000000	93.211857 
2305.000000	93.212323 
2304.000000	93.212734 
2303.000000	93.213080 
2302.000000	93.213373 
2301.000000	93.213632 
2300.000000	93.213878 
2299.000000	93.214119 
2298.000000	93.214354 
2297.000000	93.214581 
2296.000000	93.214798 
2295.000000	93.215008 
2294.000000	93.215216 
2293.000000	93.215426 
2292.000000	93.215643 
2291.000000	93.215868 
2290.000000	93.216099 
2289.000000	93.216329 
2288.000000	93.216548 
2287.000000	93.216756 
2286.000000	93.216950 
2285.000000	93.217131 
2284.000000	93.217299 
2283.000000	93.217449 
2282.000000	93.217580 
2281.000000	93.217692 
2280.000000	93.217787 
2279.000000	93.217872 
2278.000000	93.217954 
2277.000000	93.218030 
2276.000000	93.218097 
2275.000000	93.218152 
2274.000000	93.218200 
2273.000000	93.218251 
2272.000000	93.218310 
2271.000000	93.218379 
2270.000000	93.218454 
2269.000000	93.218532 
2268.000000	93.218615 
2267.000000	93.218711 
2266.000000	93.218828 
2265.000000	93.218973 
2264.000000	93.219142 
2263.000000	93.219330 
2262.000000	93.219530 
2261.000000	93.219741 
2260.000000	93.219962 
2259.000000	93.220192 
2258.000000	93.220426 
2257.000000	93.220661 
2256.000000	93.220894 
2255.000000	93.221123 
2254.000000	93.221347 
2253.000000	93.221569 
2252.000000	93.221794 
2251.000000	93.222025 
2250.000000	93.222264 
2249.000000	93.222506 
2248.000000	93.222748 
2247.000000	93.222991 
2246.000000	93.223246 
2245.000000	93.223524 
2244.000000	93.223830 
2243.000000	93.224159 
2242.000000	93.224503 
2241.000000	93.224860 
2240.000000	93.225233 
2239.000000	93.225625 
2238.000000	93.226036 
2237.000000	93.226461 
2236.000000	93.226895 
2235.000000	93.227333 
2234.000000	93.227779 
2233.000000	93.228239 
2232.000000	93.228716 
2231.000000	93.229203 
2230.000000	93.229690 
2229.000000	93.230165 
2228.000000	93.230620 
2227.000000	93.231053 
2226.000000	93.231468 
2225.000000	93.231869 
2224.000000	93.232262 
2223.000000	93.232647 
2222.000000	93.233026 
2221.000000	93.233403 
2220.000000	93.233784 
2219.000000	93.234175 
2218.000000	93.234576 
2217.000000	93.234988 
2216.000000	93.235406 
2215.000000	93.235824 
2214.000000	93.236235 
2213.000000	93.236635 
2212.000000	93.237023 
2211.000000	93.237407 
2210.000000	93.237789 
2209.000000	93.238172 
2208.000000	93.238554 
2207.000000	93.238934 
2206.000000	93.239311 
2205.000000	93.239692 
2204.000000	93.240081 
2203.000000	93.240475 
2202.000000	93.240867 
2201.000000	93.241247 
2200.000000	93.241612 
2199.000000	93.241966 
2198.000000	93.242314 
2197.000000	93.242662 
2196.000000	93.243014 
2195.000000	93.243372 
2194.000000	93.243729 
2193.000000	93.244079 
2192.000000	93.244414 
2191.000000	93.244735 
2190.000000	93.245042 
2189.000000	93.245345 
2188.000000	93.245650 
2187.000000	93.245964 
2186.000000	93.246287 
2185.000000	93.246624 
2184.000000	93.246977 
2183.000000	93.247346 
2182.000000	93.247724 
2181.000000	93.248100 
2180.000000	93.248468 
2179.000000	93.248827 
2178.000000	93.249176 
2177.000000	93.249516 
2176.000000	93.249846 
2175.000000	93.250172 
2174.000000	93.250498 
2173.000000	93.250828 
2172.000000	93.251166 
2171.000000	93.251517 
2170.000000	93.251883 
2169.000000	93.252266 
2168.000000	93.252660 
2167.000000	93.253058 
2166.000000	93.253450 
2165.000000	93.253831 
2164.000000	93.254203 
2163.000000	93.254572 
2162.000000	93.254940 
2161.000000	93.255303 
2160.000000	93.255658 
2159.000000	93.256004 
2158.000000	93.256344 
2157.000000	93.256681 
2156.000000	93.257017 
2155.000000	93.257352 
2154.000000	93.257684 
2153.000000	93.258006 
2152.000000	93.258316 
2151.000000	93.258617 
2150.000000	93.258918 
2149.000000	93.259232 
2148.000000	93.259568 
2147.000000	93.259926 
2146.000000	93.260297 
2145.000000	93.260669 
2144.000000	93.261034 
2143.000000	93.261392 
2142.000000	93.261746 
2141.000000	93.262099 
2140.000000	93.262452 
2139.000000	93.262808 
2138.000000	93.263169 
2137.000000	93.263539 
2136.000000	93.263918 
2135.000000	93.264307 
2134.000000	93.264704 
2133.000000	93.265103 
2132.000000	93.265495 
2131.000000	93.265874 
2130.000000	93.266241 
2129.000000	93.266600 
2128.000000	93.266960 
2127.000000	93.267326 
2126.000000	93.267701 
2125.000000	93.268087 
2124.000000	93.268486 
2123.000000	93.268905 
2122.000000	93.269349 
2121.000000	93.269820 
2120.000000	93.270312 
2119.000000	93.270818 
2118.000000	93.271332 
2117.000000	93.271854 
2116.000000	93.272392 
2115.000000	93.272954 
2114.000000	93.273539 
2113.000000	93.274140 
2112.000000	93.274750 
2111.000000	93.275367 
2110.000000	93.275992 
2109.000000	93.276629 
2108.000000	93.277281 
2107.000000	93.277948 
2106.000000	93.278620 
2105.000000	93.279287 
2104.000000	93.279944 
2103.000000	93.280596 
2102.000000	93.281257 
2101.000000	93.281937 
2100.000000	93.282636 
2099.000000	93.283350 
2098.000000	93.284071 
2097.000000	93.284796 
2096.000000	93.285521 
2095.000000	93.286235 
2094.000000	93.286938 
2093.000000	93.287655 
2092.000000	93.288411 
2091.000000	93.289189 
2090.000000	93.289906 
2089.000000	93.290500 
2088.000000	93.291052 
2087.000000	93.291753 
2086.000000	93.292694 
2085.000000	93.293770 
2084.000000	93.294870 
2083.000000	93.296052 
2082.000000	93.297400 
2081.000000	93.298809 
2080.000000	93.300078 
2079.000000	93.301086 
2078.000000	93.301720 
2077.000000	93.301893 
2076.000000	93.301778 
2075.000000	93.301828 
2074.000000	93.302339 
2073.000000	93.303121 
2072.000000	93.303776 
2071.000000	93.304097 
2070.000000	93.304077 
2069.000000	93.303857 
2068.000000	93.303800 
2067.000000	93.304249 
2066.000000	93.305083 
2065.000000	93.305852 
2064.000000	93.306479 
2063.000000	93.307330 
2062.000000	93.308305 
2061.000000	93.308558 
2060.000000	93.307679 
2059.000000	93.306388 
2058.000000	93.305683 
2057.000000	93.305742 
2056.000000	93.306076 
2055.000000	93.306350 
2054.000000	93.306565 
2053.000000	93.306765 
2052.000000	93.306956 
2051.000000	93.307107 
2050.000000	93.306985 
2049.000000	93.306280 
2048.000000	93.305047 
2047.000000	93.303798 
2046.000000	93.302999 
2045.000000	93.302667 
2044.000000	93.302553 
2043.000000	93.302411 
2042.000000	93.302049 
2041.000000	93.301405 
2040.000000	93.300683 
2039.000000	93.300196 
2038.000000	93.300007 
2037.000000	93.299900 
2036.000000	93.299653 
2035.000000	93.299229 
2034.000000	93.298704 
2033.000000	93.298153 
2032.000000	93.297618 
2031.000000	93.297138 
2030.000000	93.296686 
2029.000000	93.296128 
2028.000000	93.295371 
2027.000000	93.294504 
2026.000000	93.293731 
2025.000000	93.293145 
2024.000000	93.292685 
2023.000000	93.292250 
2022.000000	93.291759 
2021.000000	93.291179 
2020.000000	93.290566 
2019.000000	93.290077 
2018.000000	93.289809 
2017.000000	93.289671 
2016.000000	93.289450 
2015.000000	93.289047 
2014.000000	93.288534 
2013.000000	93.288035 
2012.000000	93.287621 
2011.000000	93.287307 
2010.000000	93.287061 
2009.000000	93.286809 
2008.000000	93.286490 
2007.000000	93.286120 
2006.000000	93.285765 
2005.000000	93.285460 
2004.000000	93.285200 
2003.000000	93.284987 
2002.000000	93.284850 
2001.000000	93.284789 
2000.000000	93.284743 
1999.000000	93.284653 
1998.000000	93.284516 
1997.000000	93.284374 
1996.000000	93.284263 
1995.000000	93.284194 
1994.000000	93.284175 
1993.000000	93.284226 
1992.000000	93.284346 
1991.000000	93.284502 
1990.000000	93.284653 
1989.000000	93.284779 
1988.000000	93.284889 
1987.000000	93.284991 
1986.000000	93.285085 
1985.000000	93.285175 
1984.000000	93.285268 
1983.000000	93.285371 
1982.000000	93.285483 
1981.000000	93.285607 
1980.000000	93.285745 
1979.000000	93.285898 
1978.000000	93.286065 
1977.000000	93.286241 
1976.000000	93.286416 
1975.000000	93.286587 
1974.000000	93.286756 
1973.000000	93.286932 
1972.000000	93.287124 
1971.000000	93.287332 
1970.000000	93.287547 
1969.000000	93.287759 
1968.000000	93.287961 
1967.000000	93.288156 
1966.000000	93.288348 
1965.000000	93.288537 
1964.000000	93.288716 
1963.000000	93.288880 
1962.000000	93.289019 
1961.000000	93.289125 
1960.000000	93.289194 
1959.000000	93.289232 
1958.000000	93.289257 
1957.000000	93.289286 
1956.000000	93.289317 
1955.000000	93.289325 
1954.000000	93.289285 
1953.000000	93.289192 
1952.000000	93.289084 
1951.000000	93.289006 
1950.000000	93.288981 
1949.000000	93.289001 
1948.000000	93.289015 
1947.000000	93.288927 
1946.000000	93.288633 
1945.000000	93.288154 
1944.000000	93.287721 
1943.000000	93.287612 
1942.000000	93.287933 
1941.000000	93.288531 
1940.000000	93.289142 
1939.000000	93.289512 
1938.000000	93.289421 
1937.000000	93.288824 
1936.000000	93.288035 
1935.000000	93.287553 
1934.000000	93.287589 
1933.000000	93.287875 
1932.000000	93.287952 
1931.000000	93.287584 
1930.000000	93.286844 
1929.000000	93.285969 
1928.000000	93.285156 
1927.000000	93.284396 
1926.000000	93.283440 
1925.000000	93.282112 
1924.000000	93.280667 
1923.000000	93.279596 
1922.000000	93.279084 
1921.000000	93.278801 
1920.000000	93.278377 
1919.000000	93.277783 
1918.000000	93.277180 
1917.000000	93.276763 
1916.000000	93.276851 
1915.000000	93.277571 
1914.000000	93.278410 
1913.000000	93.278485 
1912.000000	93.277401 
1911.000000	93.275654 
1910.000000	93.273996 
1909.000000	93.272628 
1908.000000	93.271317 
1907.000000	93.269779 
1906.000000	93.267534 
1905.000000	93.264230 
1904.000000	93.260706 
1903.000000	93.258771 
1902.000000	93.259291 
1901.000000	93.260851 
1900.000000	93.261192 
1899.000000	93.259896 
1898.000000	93.258367 
1897.000000	93.257613 
1896.000000	93.257255 
1895.000000	93.256468 
1894.000000	93.255132 
1893.000000	93.253695 
1892.000000	93.252700 
1891.000000	93.252596 
1890.000000	93.253364 
1889.000000	93.254266 
1888.000000	93.254580 
1887.000000	93.254302 
1886.000000	93.253725 
1885.000000	93.252944 
1884.000000	93.251950 
1883.000000	93.250848 
1882.000000	93.249938 
1881.000000	93.249862 
1880.000000	93.251524 
1879.000000	93.254995 
1878.000000	93.258235 
1877.000000	93.258484 
1876.000000	93.255559 
1875.000000	93.252219 
1874.000000	93.250733 
1873.000000	93.250566 
1872.000000	93.250273 
1871.000000	93.250206 
1870.000000	93.251771 
1869.000000	93.254637 
1868.000000	93.257114 
1867.000000	93.259194 
1866.000000	93.262015 
1865.000000	93.265169 
1864.000000	93.267242 
1863.000000	93.268239 
1862.000000	93.269928 
1861.000000	93.273795 
1860.000000	93.279644 
1859.000000	93.286090 
1858.000000	93.291419 
1857.000000	93.294216 
1856.000000	93.294463 
1855.000000	93.294073 
1854.000000	93.295224 
1853.000000	93.298019 
1852.000000	93.300635 
1851.000000	93.301763 
1850.000000	93.301718 
1849.000000	93.301465 
1848.000000	93.302009 
1847.000000	93.304170 
1846.000000	93.308048 
1845.000000	93.312164 
1844.000000	93.314476 
1843.000000	93.315468 
1842.000000	93.317746 
1841.000000	93.321664 
1840.000000	93.324806 
1839.000000	93.325387 
1838.000000	93.324051 
1837.000000	93.322928 
1836.000000	93.323141 
1835.000000	93.324075 
1834.000000	93.325085 
1833.000000	93.326391 
1832.000000	93.328146 
1831.000000	93.329411 
1830.000000	93.328739 
1829.000000	93.326141 
1828.000000	93.323598 
1827.000000	93.322749 
1826.000000	93.323513 
1825.000000	93.324848 
1824.000000	93.325898 
1823.000000	93.326734 
1822.000000	93.327804 
1821.000000	93.329052 
1820.000000	93.329950 
1819.000000	93.330191 
1818.000000	93.330058 
1817.000000	93.329995 
1816.000000	93.329988 
1815.000000	93.329707 
1814.000000	93.329209 
1813.000000	93.328966 
1812.000000	93.329228 
1811.000000	93.329552 
1810.000000	93.329220 
1809.000000	93.328145 
1808.000000	93.326997 
1807.000000	93.326447 
1806.000000	93.326434 
1805.000000	93.326369 
1804.000000	93.325908 
1803.000000	93.325354 
1802.000000	93.325191 
1801.000000	93.325389 
1800.000000	93.325429 
1799.000000	93.324964 
1798.000000	93.324142 
1797.000000	93.323358 
1796.000000	93.322857 
1795.000000	93.322640 
1794.000000	93.322563 
1793.000000	93.322462 
1792.000000	93.322379 
1791.000000	93.322597 
1790.000000	93.323191 
1789.000000	93.323796 
1788.000000	93.324054 
1787.000000	93.323959 
1786.000000	93.323756 
1785.000000	93.323680 
1784.000000	93.323767 
1783.000000	93.323930 
1782.000000	93.324115 
1781.000000	93.324299 
1780.000000	93.324466 
1779.000000	93.324600 
1778.000000	93.324666 
1777.000000	93.324629 
1776.000000	93.324518 
1775.000000	93.324478 
1774.000000	93.324609 
1773.000000	93.324733 
1772.000000	93.324513 
1771.000000	93.324016 
1770.000000	93.323808 
1769.000000	93.324261 
1768.000000	93.325339 
1767.000000	93.326631 
1766.000000	93.327650 
1765.000000	93.328230 
1764.000000	93.328560 
1763.000000	93.328965 
1762.000000	93.329554 
1761.000000	93.330048 
1760.000000	93.330128 
1759.000000	93.329857 
1758.000000	93.329779 
1757.000000	93.330350 
1756.000000	93.331018 
1755.000000	93.330767 
1754.000000	93.329297 
1753.000000	93.327323 
1752.000000	93.326074 
1751.000000	93.326397 
1750.000000	93.328217 
1749.000000	93.330593 
1748.000000	93.332010 
1747.000000	93.331377 
1746.000000	93.329191 
1745.000000	93.327282 
1744.000000	93.327354 
1743.000000	93.329391 
1742.000000	93.331772 
1741.000000	93.332812 
1740.000000	93.331484 
1739.000000	93.327832 
1738.000000	93.323506 
1737.000000	93.320409 
1736.000000	93.318926 
1735.000000	93.317887 
1734.000000	93.314742 
1733.000000	93.309940 
1732.000000	93.307718 
1731.000000	93.309029 
1730.000000	93.311367 
1729.000000	93.312470 
1728.000000	93.311348 
1727.000000	93.308376 
1726.000000	93.304077 
1725.000000	93.298795 
1724.000000	93.293332 
1723.000000	93.288563 
1722.000000	93.284474 
1721.000000	93.280296 
1720.000000	93.275306 
1719.000000	93.269330 
1718.000000	93.262615 
1717.000000	93.256187 
1716.000000	93.251447 
1715.000000	93.248299 
1714.000000	93.245226 
1713.000000	93.241201 
1712.000000	93.236389 
1711.000000	93.231404 
1710.000000	93.226435 
1709.000000	93.221262 
1708.000000	93.215873 
1707.000000	93.210510 
1706.000000	93.205131 
1705.000000	93.199500 
1704.000000	93.193805 
1703.000000	93.188349 
1702.000000	93.183077 
1701.000000	93.177696 
1700.000000	93.172094 
1699.000000	93.166473 
1698.000000	93.160895 
1697.000000	93.155301 
1696.000000	93.149676 
1695.000000	93.144009 
1694.000000	93.138294 
1693.000000	93.132538 
1692.000000	93.126749 
1691.000000	93.120931 
1690.000000	93.115084 
1689.000000	93.109209 
1688.000000	93.103311 
1687.000000	93.097393 
1686.000000	93.091451 
1685.000000	93.085447 
1684.000000	93.079134 
1683.000000	93.072466 
1682.000000	93.066266 
1681.000000	93.061089 
1680.000000	93.056550 
1679.000000	93.052044 
1678.000000	93.047133 
1677.000000	93.042166 
1676.000000	93.037577 
1675.000000	93.032414 
1674.000000	93.025785 
1673.000000	93.019073 
1672.000000	93.013331 
1671.000000	93.007164 
1670.000000	92.998250 
1669.000000	92.987432 
1668.000000	92.980041 
1667.000000	92.979085 
1666.000000	92.981849 
1665.000000	92.984921 
1664.000000	92.986594 
1663.000000	92.984529 
1662.000000	92.977231 
1661.000000	92.968053 
1660.000000	92.961386 
1659.000000	92.956497 
1658.000000	92.948674 
1657.000000	92.934731 
1656.000000	92.917712 
1655.000000	92.904938 
1654.000000	92.904025 
1653.000000	92.906573 
1652.000000	92.899869 
1651.000000	92.895455 
1650.000000	92.896098 
1649.000000	92.894657 
1648.000000	92.894411 
1647.000000	92.895225 
1646.000000	92.893890 
1645.000000	92.891908 
1644.000000	92.892553 
1643.000000	92.893985 
1642.000000	92.893788 
1641.000000	92.890062 
1640.000000	92.882848 
1639.000000	92.876149 
1638.000000	92.874502 
1637.000000	92.879334 
1636.000000	92.885401 
1635.000000	92.886058 
1634.000000	92.885682 
1633.000000	92.890646 
1632.000000	92.898283 
1631.000000	92.906254 
1630.000000	92.915682 
1629.000000	92.925996 
1628.000000	92.934962 
1627.000000	92.942267 
1626.000000	92.950700 
1625.000000	92.961948 
1624.000000	92.973919 
1623.000000	92.981589 
1622.000000	92.983312 
1621.000000	92.984216 
1620.000000	92.990190 
1619.000000	93.004680 
1618.000000	93.028347 
1617.000000	93.053816 
1616.000000	93.069968 
1615.000000	93.078323 
1614.000000	93.086525 
1613.000000	93.094427 
1612.000000	93.100065 
1611.000000	93.104751 
1610.000000	93.111543 
1609.000000	93.122097 
1608.000000	93.135267 
1607.000000	93.148921 
1606.000000	93.161882 
1605.000000	93.173734 
1604.000000	93.184034 
1603.000000	93.192284 
1602.000000	93.198674 
1601.000000	93.204869 
1600.000000	93.212602 
1599.000000	93.221998 
1598.000000	93.231737 
1597.000000	93.240038 
1596.000000	93.245213 
1595.000000	93.246215 
1594.000000	93.244049 
1593.000000	93.241973 
1592.000000	93.243207 
1591.000000	93.248429 
1590.000000	93.255613 
1589.000000	93.262195 
1588.000000	93.267101 
1587.000000	93.270487 
1586.000000	93.272339 
1585.000000	93.272362 
1584.000000	93.271004 
1583.000000	93.269837 
1582.000000	93.269859 
1581.000000	93.270677 
1580.000000	93.271724 
1579.000000	93.273180 
1578.000000	93.274854 
1577.000000	93.273830 
1576.000000	93.264747 
1575.000000	93.249541 
1574.000000	93.238558 
1573.000000	93.235531 
1572.000000	93.237464 
1571.000000	93.241313 
1570.000000	93.243105 
1569.000000	93.241056 
1568.000000	93.238387 
1567.000000	93.237465 
1566.000000	93.236191 
1565.000000	93.232489 
1564.000000	93.226495 
1563.000000	93.219506 
1562.000000	93.213279 
1561.000000	93.209318 
1560.000000	93.209596 
1559.000000	93.209669 
1558.000000	93.203979 
1557.000000	93.200280 
1556.000000	93.201891 
1555.000000	93.204482 
1554.000000	93.206170 
1553.000000	93.205372 
1552.000000	93.202895 
1551.000000	93.201119 
1550.000000	93.201744 
1549.000000	93.204068 
1548.000000	93.205632 
1547.000000	93.205011 
1546.000000	93.202893 
1545.000000	93.201277 
1544.000000	93.202063 
1543.000000	93.205780 
1542.000000	93.211522 
1541.000000	93.217264 
1540.000000	93.219632 
1539.000000	93.217644 
1538.000000	93.214656 
1537.000000	93.213003 
1536.000000	93.212209 
1535.000000	93.212085 
1534.000000	93.212489 
1533.000000	93.212857 
1532.000000	93.213165 
1531.000000	93.213690 
1530.000000	93.214208 
1529.000000	93.214626 
1528.000000	93.215281 
1527.000000	93.216668 
1526.000000	93.218928 
1525.000000	93.221496 
1524.000000	93.223688 
1523.000000	93.225350 
1522.000000	93.226690 
1521.000000	93.227977 
1520.000000	93.229596 
1519.000000	93.231623 
1518.000000	93.233761 
1517.000000	93.235977 
1516.000000	93.238356 
1515.000000	93.240832 
1514.000000	93.243181 
1513.000000	93.245111 
1512.000000	93.246495 
1511.000000	93.247364 
1510.000000	93.248089 
1509.000000	93.249435 
1508.000000	93.252666 
1507.000000	93.258574 
1506.000000	93.264644 
1505.000000	93.268068 
1504.000000	93.269425 
1503.000000	93.270078 
1502.000000	93.271189 
1501.000000	93.273598 
1500.000000	93.276763 
1499.000000	93.279142 
1498.000000	93.279569 
1497.000000	93.278799 
1496.000000	93.279264 
1495.000000	93.282412 
1494.000000	93.286730 
1493.000000	93.289114 
1492.000000	93.287979 
1491.000000	93.285219 
1490.000000	93.285524 
1489.000000	93.291408 
1488.000000	93.299298 
1487.000000	93.303691 
1486.000000	93.303166 
1485.000000	93.300027 
1484.000000	93.297027 
1483.000000	93.296026 
1482.000000	93.297299 
1481.000000	93.299638 
1480.000000	93.301340 
1479.000000	93.301493 
1478.000000	93.300327 
1477.000000	93.298540 
1476.000000	93.296933 
1475.000000	93.296189 
1474.000000	93.296711 
1473.000000	93.297776 
1472.000000	93.298331 
1471.000000	93.298302 
1470.000000	93.297238 
1469.000000	93.294326 
1468.000000	93.291203 
1467.000000	93.290905 
1466.000000	93.293367 
1465.000000	93.293126 
1464.000000	93.285351 
1463.000000	93.271948 
1462.000000	93.256368 
1461.000000	93.239112 
1460.000000	93.220067 
1459.000000	93.201314 
1458.000000	93.186585 
1457.000000	93.177284 
1456.000000	93.171941 
1455.000000	93.168965 
1454.000000	93.166600 
1453.000000	93.165098 
1452.000000	93.165230 
1451.000000	93.165130 
1450.000000	93.163613 
1449.000000	93.162253 
1448.000000	93.163484 
1447.000000	93.167807 
1446.000000	93.172998 
1445.000000	93.175354 
1444.000000	93.172790 
1443.000000	93.166252 
1442.000000	93.158544 
1441.000000	93.151429 
1440.000000	93.144107 
1439.000000	93.135971 
1438.000000	93.129178 
1437.000000	93.126897 
1436.000000	93.128076 
1435.000000	93.128033 
1434.000000	93.124448 
1433.000000	93.118944 
1432.000000	93.113524 
1431.000000	93.107805 
1430.000000	93.100820 
1429.000000	93.093255 
1428.000000	93.086334 
1427.000000	93.080567 
1426.000000	93.076443 
1425.000000	93.074151 
1424.000000	93.072099 
1423.000000	93.066883 
1422.000000	93.056448 
1421.000000	93.042280 
1420.000000	93.028643 
1419.000000	93.020171 
1418.000000	93.017898 
1417.000000	93.017855 
1416.000000	93.014886 
1415.000000	93.006918 
1414.000000	92.995076 
1413.000000	92.982136 
1412.000000	92.971061 
1411.000000	92.962885 
1410.000000	92.955737 
1409.000000	92.946770 
1408.000000	92.935373 
1407.000000	92.924763 
1406.000000	92.920594 
1405.000000	92.926713 
1404.000000	92.941235 
1403.000000	92.957137 
1402.000000	92.968516 
1401.000000	92.975113 
1400.000000	92.980120 
1399.000000	92.984847 
1398.000000	92.985436 
1397.000000	92.976094 
1396.000000	92.956301 
1395.000000	92.935966 
1394.000000	92.929813 
1393.000000	92.943098 
1392.000000	92.967841 
1391.000000	92.991448 
1390.000000	93.005607 
1389.000000	93.008810 
1388.000000	93.005023 
1387.000000	93.000713 
1386.000000	93.000204 
1385.000000	93.003046 
1384.000000	93.006528 
1383.000000	93.008628 
1382.000000	93.008767 
1381.000000	93.008123 
1380.000000	93.009358 
1379.000000	93.015226 
1378.000000	93.026355 
1377.000000	93.040515 
1376.000000	93.054740 
1375.000000	93.068096 
1374.000000	93.082101 
1373.000000	93.098186 
1372.000000	93.115505 
1371.000000	93.132510 
1370.000000	93.149593 
1369.000000	93.168011 
1368.000000	93.186549 
1367.000000	93.200866 
1366.000000	93.207510 
1365.000000	93.207824 
1364.000000	93.207721 
1363.000000	93.214032 
1362.000000	93.229201 
1361.000000	93.248636 
1360.000000	93.264929 
1359.000000	93.274682 
1358.000000	93.280857 
1357.000000	93.289365 
1356.000000	93.302692 
1355.000000	93.316574 
1354.000000	93.324409 
1353.000000	93.324756 
1352.000000	93.322390 
1351.000000	93.322527 
1350.000000	93.326316 
1349.000000	93.331503 
1348.000000	93.335560 
1347.000000	93.337226 
1346.000000	93.336273 
1345.000000	93.333008 
1344.000000	93.327968 
1343.000000	93.321654 
1342.000000	93.314511 
1341.000000	93.307291 
1340.000000	93.301477 
1339.000000	93.299091 
1338.000000	93.301651 
1337.000000	93.309139 
1336.000000	93.319439 
1335.000000	93.328459 
1334.000000	93.332230 
1333.000000	93.330085 
1332.000000	93.325505 
1331.000000	93.323308 
1330.000000	93.325746 
1329.000000	93.331079 
1328.000000	93.335357 
1327.000000	93.335498 
1326.000000	93.331537 
1325.000000	93.326754 
1324.000000	93.325251 
1323.000000	93.328355 
1322.000000	93.332922 
1321.000000	93.333772 
1320.000000	93.328593 
1319.000000	93.320627 
1318.000000	93.315750 
1317.000000	93.316733 
1316.000000	93.321585 
1315.000000	93.327080 
1314.000000	93.331811 
1313.000000	93.335278 
1312.000000	93.336127 
1311.000000	93.333526 
1310.000000	93.329610 
1309.000000	93.328169 
1308.000000	93.330375 
1307.000000	93.333372 
1306.000000	93.333758 
1305.000000	93.331311 
1304.000000	93.328786 
1303.000000	93.329038 
1302.000000	93.332662 
1301.000000	93.337325 
1300.000000	93.339125 
1299.000000	93.335881 
1298.000000	93.329651 
1297.000000	93.325173 
1296.000000	93.325324 
1295.000000	93.329069 
1294.000000	93.333832 
1293.000000	93.337817 
1292.000000	93.339498 
1291.000000	93.337405 
1290.000000	93.332208 
1289.000000	93.327311 
1288.000000	93.325431 
1287.000000	93.325643 
1286.000000	93.325324 
1285.000000	93.323575 
1284.000000	93.320942 
1283.000000	93.317417 
1282.000000	93.312956 
1281.000000	93.309057 
1280.000000	93.307340 
1279.000000	93.306497 
1278.000000	93.303108 
1277.000000	93.296046 
1276.000000	93.288083 
1275.000000	93.282485 
1274.000000	93.279694 
1273.000000	93.278073 
1272.000000	93.276357 
1271.000000	93.274272 
1270.000000	93.271774 
1269.000000	93.268800 
1268.000000	93.265367 
1267.000000	93.261407 
1266.000000	93.256923 
1265.000000	93.252136 
1264.000000	93.246519 
1263.000000	93.238183 
1262.000000	93.226168 
1261.000000	93.213266 
1260.000000	93.203647 
1259.000000	93.196510 
1258.000000	93.185302 
1257.000000	93.165914 
1256.000000	93.143274 
1255.000000	93.126424 
1254.000000	93.118014 
1253.000000	93.112337 
1252.000000	93.103691 
1251.000000	93.092885 
1250.000000	93.084422 
1249.000000	93.080716 
1248.000000	93.081079 
1247.000000	93.083339 
1246.000000	93.083171 
1245.000000	93.073787 
1244.000000	93.051105 
1243.000000	93.020999 
1242.000000	92.998408 
1241.000000	92.995346 
1240.000000	93.009164 
1239.000000	93.023952 
1238.000000	93.024406 
1237.000000	93.007654 
1236.000000	92.981693 
1235.000000	92.955413 
1234.000000	92.932622 
1233.000000	92.913767 
1232.000000	92.898138 
1231.000000	92.882410 
1230.000000	92.861067 
1229.000000	92.832257 
1228.000000	92.801600 
1227.000000	92.776719 
1226.000000	92.758545 
1225.000000	92.741034 
1224.000000	92.718784 
1223.000000	92.691340 
1222.000000	92.660072 
1221.000000	92.624898 
1220.000000	92.585810 
1219.000000	92.544778 
1218.000000	92.503695 
1217.000000	92.461569 
1216.000000	92.415408 
1215.000000	92.363396 
1214.000000	92.306562 
1213.000000	92.247865 
1212.000000	92.189586 
1211.000000	92.130845 
1210.000000	92.068315 
1209.000000	92.000821 
1208.000000	91.932200 
1207.000000	91.866908 
1206.000000	91.803407 
1205.000000	91.735625 
1204.000000	91.661162 
1203.000000	91.584429 
1202.000000	91.510739 
1201.000000	91.440302 
1200.000000	91.369333 
1199.000000	91.294613 
1198.000000	91.215791 
1197.000000	91.134840 
1196.000000	91.053978 
1195.000000	90.973131 
1194.000000	90.890045 
1193.000000	90.804303 
1192.000000	90.719241 
1191.000000	90.636822 
1190.000000	90.552774 
1189.000000	90.461625 
1188.000000	90.365272 
1187.000000	90.271165 
1186.000000	90.182372 
1185.000000	90.094920 
1184.000000	90.004730 
1183.000000	89.910778 
1182.000000	89.811116 
1181.000000	89.702988 
1180.000000	89.589020 
1179.000000	89.476766 
1178.000000	89.368871 
1177.000000	89.258797 
1176.000000	89.138858 
1175.000000	89.007843 
1174.000000	88.869211 
1173.000000	88.727498 
1172.000000	88.588426 
1171.000000	88.455994 
1170.000000	88.326305 
1169.000000	88.190740 
1168.000000	88.049368 
1167.000000	87.915819 
1166.000000	87.805469 
1165.000000	87.724492 
1164.000000	87.673177 
1163.000000	87.652409 
1162.000000	87.661666 
1161.000000	87.695456 
1160.000000	87.745272 
1159.000000	87.800332 
1158.000000	87.844229 
1157.000000	87.857535 
1156.000000	87.828787 
1155.000000	87.760874 
1154.000000	87.665566 
1153.000000	87.555197 
1152.000000	87.440390 
1151.000000	87.329251 
1150.000000	87.223411 
1149.000000	87.117932 
1148.000000	87.008624 
1147.000000	86.896830 
1146.000000	86.785501 
1145.000000	86.674595 
1144.000000	86.562363 
1143.000000	86.447579 
1142.000000	86.329410 
1141.000000	86.209044 
1140.000000	86.091469 
1139.000000	85.980315 
1138.000000	85.870906 
1137.000000	85.754772 
1136.000000	85.631026 
1135.000000	85.506193 
1134.000000	85.382717 
1133.000000	85.256263 
1132.000000	85.125818 
1131.000000	84.997279 
1130.000000	84.874147 
1129.000000	84.752827 
1128.000000	84.629990 
1127.000000	84.506686 
1126.000000	84.382658 
1125.000000	84.254671 
1124.000000	84.122994 
1123.000000	83.991514 
1122.000000	83.859183 
1121.000000	83.719809 
1120.000000	83.572833 
1119.000000	83.425866 
1118.000000	83.284642 
1117.000000	83.149377 
1116.000000	83.021895 
1115.000000	82.904897 
1114.000000	82.791729 
1113.000000	82.668956 
1112.000000	82.533114 
1111.000000	82.393828 
1110.000000	82.257483 
1109.000000	82.120124 
1108.000000	81.979953 
1107.000000	81.843648 
1106.000000	81.714612 
1105.000000	81.586414 
1104.000000	81.453696 
1103.000000	81.319211 
1102.000000	81.185154 
1101.000000	81.047957 
1100.000000	80.906498 
1099.000000	80.766035 
1098.000000	80.630229 
1097.000000	80.498418 
1096.000000	80.372030 
1095.000000	80.252665 
1094.000000	80.132875 
1093.000000	80.001852 
1092.000000	79.862677 
1091.000000	79.731564 
1090.000000	79.618127 
1089.000000	79.518614 
1088.000000	79.428487 
1087.000000	79.346675 
1086.000000	79.266727 
1085.000000	79.180435 
1084.000000	79.092550 
1083.000000	79.015497 
1082.000000	78.947057 
1081.000000	78.870516 
1080.000000	78.780591 
1079.000000	78.691918 
1078.000000	78.617472 
1077.000000	78.555104 
1076.000000	78.499391 
1075.000000	78.448450 
1074.000000	78.393436 
1073.000000	78.318709 
1072.000000	78.218067 
1071.000000	78.094972 
1070.000000	77.943620 
1069.000000	77.749530 
1068.000000	77.515810 
1067.000000	77.270746 
1066.000000	77.039709 
1065.000000	76.824147 
1064.000000	76.615742 
1063.000000	76.411131 
1062.000000	76.201126 
1061.000000	75.964562 
1060.000000	75.689548 
1059.000000	75.391142 
1058.000000	75.097316 
1057.000000	74.826024 
1056.000000	74.582242 
1055.000000	74.363103 
1054.000000	74.156019 
1053.000000	73.944351 
1052.000000	73.725269 
1051.000000	73.512464 
1050.000000	73.315154 
1049.000000	73.127473 
1048.000000	72.942754 
1047.000000	72.761659 
1046.000000	72.582689 
1045.000000	72.401779 
1044.000000	72.223953 
1043.000000	72.059120 
1042.000000	71.903792 
1041.000000	71.742286 
1040.000000	71.568302 
1039.000000	71.390937 
1038.000000	71.219990 
1037.000000	71.062174 
1036.000000	70.930074 
1035.000000	70.833846 
1034.000000	70.762092 
1033.000000	70.689881 
1032.000000	70.606857 
1031.000000	70.519876 
1030.000000	70.432264 
1029.000000	70.344540 
1028.000000	70.273165 
1027.000000	70.240356 
1026.000000	70.241493 
1025.000000	70.246757 
1024.000000	70.238387 
1023.000000	70.222388 
1022.000000	70.202228 
1021.000000	70.169194 
1020.000000	70.124004 
1019.000000	70.081187 
1018.000000	70.044504 
1017.000000	70.002012 
1016.000000	69.951996 
1015.000000	69.909451 
1014.000000	69.879445 
1013.000000	69.847962 
1012.000000	69.807561 
1011.000000	69.769647 
1010.000000	69.743045 
1009.000000	69.722122 
1008.000000	69.704211 
1007.000000	69.697823 
1006.000000	69.705435 
1005.000000	69.718030 
1004.000000	69.734236 
1003.000000	69.765805 
1002.000000	69.817613 
1001.000000	69.880815 
1000.000000	69.950616 
999.000000	 70.031293 
998.000000	 70.119498 
997.000000	 70.203925 
996.000000	 70.287148 
995.000000	 70.386300 
994.000000	 70.505316 
993.000000	 70.626725 
992.000000	 70.737852 
991.000000	 70.845895 
990.000000	 70.960281 
989.000000	 71.080071 
988.000000	 71.206800 
987.000000	 71.350540 
986.000000	 71.513448 
985.000000	 71.683167 
984.000000	 71.850620 
983.000000	 72.020599 
982.000000	 72.199696 
981.000000	 72.388718 
980.000000	 72.591580 
979.000000	 72.815716 
978.000000	 73.057640 
977.000000	 73.302576 
976.000000	 73.543890 
975.000000	 73.790291 
974.000000	 74.050557 
973.000000	 74.324031 
972.000000	 74.608039 
971.000000	 74.900983 
970.000000	 75.196066 
969.000000	 75.485400 
968.000000	 75.771965 
967.000000	 76.064889 
966.000000	 76.362587 
965.000000	 76.653535 
964.000000	 76.933311 
963.000000	 77.207147 
962.000000	 77.476472 
961.000000	 77.737551 
960.000000	 77.993242 
959.000000	 78.251029 
958.000000	 78.508201 
957.000000	 78.752661 
956.000000	 78.979221 
955.000000	 79.192414 
954.000000	 79.394340 
953.000000	 79.583818 
952.000000	 79.766542 
951.000000	 79.950676 
950.000000	 80.131997 
949.000000	 80.298389 
948.000000	 80.449381 
947.000000	 80.596000 
946.000000	 80.740581 
945.000000	 80.872346 
944.000000	 80.985100 
943.000000	 81.084654 
942.000000	 81.177203 
941.000000	 81.265133 
940.000000	 81.355992 
939.000000	 81.459309 
938.000000	 81.570593 
937.000000	 81.673489 
936.000000	 81.761938 
935.000000	 81.846451 
934.000000	 81.935447 
933.000000	 82.025110 
932.000000	 82.111689 
931.000000	 82.198782 
930.000000	 82.287078 
929.000000	 82.370586 
928.000000	 82.448729 
927.000000	 82.529758 
926.000000	 82.616923 
925.000000	 82.702430 
924.000000	 82.778806 
923.000000	 82.844795 
922.000000	 82.897924 
921.000000	 82.934908 
920.000000	 82.963015 
919.000000	 82.997196 
918.000000	 83.041095 
917.000000	 83.083643 
916.000000	 83.118708 
915.000000	 83.154821 
914.000000	 83.201412 
913.000000	 83.260732 
912.000000	 83.339370 
911.000000	 83.451514 
910.000000	 83.600866 
909.000000	 83.771665 
908.000000	 83.947167 
907.000000	 84.127414 
906.000000	 84.320888 
905.000000	 84.528984 
904.000000	 84.747221 
903.000000	 84.973182 
902.000000	 85.204832 
901.000000	 85.436542 
900.000000	 85.662912 
899.000000	 85.882849 
898.000000	 86.097484 
897.000000	 86.308307 
896.000000	 86.517118 
895.000000	 86.721580 
894.000000	 86.912369 
893.000000	 87.083078 
892.000000	 87.241398 
891.000000	 87.400520 
890.000000	 87.560318 
889.000000	 87.708611 
888.000000	 87.841437 
887.000000	 87.969150 
886.000000	 88.099868 
885.000000	 88.229668 
884.000000	 88.353819 
883.000000	 88.475796 
882.000000	 88.599814 
881.000000	 88.725662 
880.000000	 88.857199 
879.000000	 89.005036 
878.000000	 89.173226 
877.000000	 89.352306 
876.000000	 89.531681 
875.000000	 89.709591 
874.000000	 89.885579 
873.000000	 90.053833 
872.000000	 90.211616 
871.000000	 90.366102 
870.000000	 90.525975 
869.000000	 90.692442 
868.000000	 90.862382 
867.000000	 91.031964 
866.000000	 91.192949 
865.000000	 91.335260 
864.000000	 91.460293 
863.000000	 91.584280 
862.000000	 91.720781 
861.000000	 91.865367 
860.000000	 92.005050 
859.000000	 92.137026 
858.000000	 92.269397 
857.000000	 92.406399 
856.000000	 92.540732 
855.000000	 92.659975 
854.000000	 92.755995 
853.000000	 92.830161 
852.000000	 92.893945 
851.000000	 92.962482 
850.000000	 93.042788 
849.000000	 93.128622 
848.000000	 93.207911 
847.000000	 93.271284 
846.000000	 93.312801 
845.000000	 93.330769 
844.000000	 93.333749 
843.000000	 93.338819 
842.000000	 93.354519 
841.000000	 93.368689 
840.000000	 93.361836 
839.000000	 93.330904 
838.000000	 93.292906 
837.000000	 93.266512 
836.000000	 93.256649 
835.000000	 93.254802 
834.000000	 93.246067 
833.000000	 93.217219 
832.000000	 93.167998 
831.000000	 93.117638 
830.000000	 93.092727 
829.000000	 93.103446 
828.000000	 93.134870 
827.000000	 93.163497 
826.000000	 93.178604 
825.000000	 93.185996 
824.000000	 93.196150 
823.000000	 93.213221 
822.000000	 93.232642 
821.000000	 93.244417 
820.000000	 93.238480 
819.000000	 93.209574 
818.000000	 93.158290 
817.000000	 93.087210 
816.000000	 92.996024 
815.000000	 92.880550 
814.000000	 92.735692 
813.000000	 92.557785 
812.000000	 92.342596 
811.000000	 92.080556 
810.000000	 91.756000 
809.000000	 91.354434 
808.000000	 90.872489 
807.000000	 90.321654 
806.000000	 89.724271 
805.000000	 89.108270 
804.000000	 88.503166 
803.000000	 87.933060 
802.000000	 87.410966 
801.000000	 86.946104 
800.000000	 86.555998 
799.000000	 86.260686 
798.000000	 86.065137 
797.000000	 85.960399 
796.000000	 85.941078 
795.000000	 86.003208 
794.000000	 86.121981 
793.000000	 86.252515 
792.000000	 86.363142 
791.000000	 86.454202 
790.000000	 86.536045 
789.000000	 86.601608 
788.000000	 86.629353 
787.000000	 86.602243 
786.000000	 86.514894 
785.000000	 86.371260 
784.000000	 86.185308 
783.000000	 85.978715 
782.000000	 85.770873 
781.000000	 85.575747 
780.000000	 85.410757 
779.000000	 85.298132 
778.000000	 85.251992 
777.000000	 85.273776 
776.000000	 85.363513 
775.000000	 85.521815 
774.000000	 85.735023 
773.000000	 85.972983 
772.000000	 86.210833 
771.000000	 86.442505 
770.000000	 86.666229 
769.000000	 86.870198 
768.000000	 87.043524 
767.000000	 87.191314 
766.000000	 87.326791 
765.000000	 87.455142 
764.000000	 87.576152 
763.000000	 87.696428 
762.000000	 87.825608 
761.000000	 87.961897 
760.000000	 88.092095 
759.000000	 88.207206 
758.000000	 88.311994 
757.000000	 88.419625 
756.000000	 88.541545 
755.000000	 88.679637 
754.000000	 88.821905 
753.000000	 88.948154 
752.000000	 89.046964 
751.000000	 89.127101 
750.000000	 89.207703 
749.000000	 89.298691 
748.000000	 89.396239 
747.000000	 89.495634 
746.000000	 89.600154 
745.000000	 89.714519 
744.000000	 89.836174 
743.000000	 89.959259 
742.000000	 90.085162 
741.000000	 90.222630 
740.000000	 90.374892 
739.000000	 90.530323 
738.000000	 90.670537 
737.000000	 90.787856 
736.000000	 90.890977 
735.000000	 90.992385 
734.000000	 91.094272 
733.000000	 91.188494 
732.000000	 91.265416 
731.000000	 91.319565 
730.000000	 91.351466 
729.000000	 91.369598 
728.000000	 91.388964 
727.000000	 91.420844 
726.000000	 91.462471 
725.000000	 91.502630 
724.000000	 91.538100 
723.000000	 91.579243 
722.000000	 91.638646 
721.000000	 91.718303 
720.000000	 91.807606 
719.000000	 91.889184 
718.000000	 91.948421 
717.000000	 91.985074 
716.000000	 92.016944 
715.000000	 92.065541 
714.000000	 92.134100 
713.000000	 92.203429 
712.000000	 92.250912 
711.000000	 92.267601 
710.000000	 92.256492 
709.000000	 92.224593 
708.000000	 92.183153 
707.000000	 92.147331 
706.000000	 92.122711 
705.000000	 92.093241 
704.000000	 92.030309 
703.000000	 91.913076 
702.000000	 91.737463 
701.000000	 91.508562 
700.000000	 91.230332 
699.000000	 90.905745 
698.000000	 90.546432 
697.000000	 90.186024 
696.000000	 89.883205 
695.000000	 89.699337 
694.000000	 89.665366 
693.000000	 89.767522 
692.000000	 89.961104 
691.000000	 90.197732 
690.000000	 90.442828 
689.000000	 90.676049 
688.000000	 90.883730 
687.000000	 91.055799 
686.000000	 91.192958 
685.000000	 91.311989 
684.000000	 91.435535 
683.000000	 91.572477 
682.000000	 91.708964 
681.000000	 91.823471 
680.000000	 91.912108 
679.000000	 91.996534 
678.000000	 92.101977 
677.000000	 92.227669 
676.000000	 92.350050 
675.000000	 92.452001 
674.000000	 92.536411 
673.000000	 92.613304 
672.000000	 92.688973 
671.000000	 92.773709 
670.000000	 92.884557 
669.000000	 93.032198 
668.000000	 93.173158 
667.000000	 93.232961 
666.000000	 93.214217 
665.000000	 93.172189 
664.000000	 93.148419 
663.000000	 93.166921 
662.000000	 93.226140 
661.000000	 93.301658 
660.000000	 93.364480 
659.000000	 93.397601 
658.000000	 93.393413 
657.000000	 93.353163 
656.000000	 93.299892 
655.000000	 93.274066 
654.000000	 93.292733 
653.000000	 93.326728 
652.000000	 93.337999 
651.000000	 93.324925 
650.000000	 93.314767 

