PE IR                   SPECTRUM    ASCII       PEDS        1.60        
  -1
~SP.SP
22/12/06
15:17:06.00
23/01/09
14:52:17.00
Administrator

650.000000
4









FRONTIER FT-IR,CPU32 MAIN 00.09.9951 07-SEPTEMBER-2011 11:49:41
MIR TGS
MIR
OPTKBR
90694
0.200000

4.000000
STRONG
RATIO
SPECTRUM
MAGNITUDE
MIRACLE ATR
DOUBLE

COMBINED


0


#HDR
-1
-1
#GR
CM-1
%T
0.00002384185791015625
0.0
4000.000000
-1.000000
3351
8
100.047573
96.321855
#DATA
4000.000000	100.013266 
3999.000000	100.014705 
3998.000000	100.012770 
3997.000000	100.007314 
3996.000000	100.000054 
3995.000000	99.993634  
3994.000000	99.989912  
3993.000000	99.989340  
3992.000000	99.990967  
3991.000000	99.993058  
3990.000000	99.994234  
3989.000000	99.994145  
3988.000000	99.993387  
3987.000000	99.992985  
3986.000000	99.993683  
3985.000000	99.995459  
3984.000000	99.997452  
3983.000000	99.998400  
3982.000000	99.997533  
3981.000000	99.995174  
3980.000000	99.992601  
3979.000000	99.991139  
3978.000000	99.991024  
3977.000000	99.991177  
3976.000000	99.990310  
3975.000000	99.988181  
3974.000000	99.985721  
3973.000000	99.984062  
3972.000000	99.983486  
3971.000000	99.983377  
3970.000000	99.982857  
3969.000000	99.981419  
3968.000000	99.979148  
3967.000000	99.976544  
3966.000000	99.974170  
3965.000000	99.972395  
3964.000000	99.971336  
3963.000000	99.970851  
3962.000000	99.970543  
3961.000000	99.969964  
3960.000000	99.969044  
3959.000000	99.968268  
3958.000000	99.968241  
3957.000000	99.969057  
3956.000000	99.970161  
3955.000000	99.970841  
3954.000000	99.970834  
3953.000000	99.970386  
3952.000000	99.969845  
3951.000000	99.969330  
3950.000000	99.968729  
3949.000000	99.967906  
3948.000000	99.966883  
3947.000000	99.965843  
3946.000000	99.965047  
3945.000000	99.964707  
3944.000000	99.964859  
3943.000000	99.965231  
3942.000000	99.965275  
3941.000000	99.964553  
3940.000000	99.963038  
3939.000000	99.961028  
3938.000000	99.958914  
3937.000000	99.957021  
3936.000000	99.955622  
3935.000000	99.954937  
3934.000000	99.954988  
3933.000000	99.955390  
3932.000000	99.955451  
3931.000000	99.954715  
3930.000000	99.953281  
3929.000000	99.951685  
3928.000000	99.950435  
3927.000000	99.949644  
3926.000000	99.949039  
3925.000000	99.948181  
3924.000000	99.946788  
3923.000000	99.944919  
3922.000000	99.942911  
3921.000000	99.941130  
3920.000000	99.939784  
3919.000000	99.938917  
3918.000000	99.938451  
3917.000000	99.938157  
3916.000000	99.937658  
3915.000000	99.936639  
3914.000000	99.935098  
3913.000000	99.933293  
3912.000000	99.931396  
3911.000000	99.929289  
3910.000000	99.926864  
3909.000000	99.924457  
3908.000000	99.922852  
3907.000000	99.922739  
3906.000000	99.924027  
3905.000000	99.925529  
3904.000000	99.925610  
3903.000000	99.923492  
3902.000000	99.919645  
3901.000000	99.915150  
3900.000000	99.910815  
3899.000000	99.906962  
3898.000000	99.903773  
3897.000000	99.901462  
3896.000000	99.900219  
3895.000000	99.900211  
3894.000000	99.901438  
3893.000000	99.903364  
3892.000000	99.904823  
3891.000000	99.904735  
3890.000000	99.903025  
3889.000000	99.900572  
3888.000000	99.898448  
3887.000000	99.897171  
3886.000000	99.896468  
3885.000000	99.895728  
3884.000000	99.894723  
3883.000000	99.893697  
3882.000000	99.892887  
3881.000000	99.892212  
3880.000000	99.891454  
3879.000000	99.890585  
3878.000000	99.889691  
3877.000000	99.888740  
3876.000000	99.887587  
3875.000000	99.886140  
3874.000000	99.884483  
3873.000000	99.882861  
3872.000000	99.881516  
3871.000000	99.880524  
3870.000000	99.879713  
3869.000000	99.878761  
3868.000000	99.877502  
3867.000000	99.876055  
3866.000000	99.874715  
3865.000000	99.873708  
3864.000000	99.873010  
3863.000000	99.872386  
3862.000000	99.871609  
3861.000000	99.870636  
3860.000000	99.869579  
3859.000000	99.868599  
3858.000000	99.867748  
3857.000000	99.866914  
3856.000000	99.865911  
3855.000000	99.864653  
3854.000000	99.863197  
3853.000000	99.861687  
3852.000000	99.860264  
3851.000000	99.858972  
3850.000000	99.857792  
3849.000000	99.856631  
3848.000000	99.855324  
3847.000000	99.853716  
3846.000000	99.851818  
3845.000000	99.849884  
3844.000000	99.848217  
3843.000000	99.846908  
3842.000000	99.845869  
3841.000000	99.845032  
3840.000000	99.844377  
3839.000000	99.843624  
3838.000000	99.842189  
3837.000000	99.839778  
3836.000000	99.836979  
3835.000000	99.834909  
3834.000000	99.834219  
3833.000000	99.834511  
3832.000000	99.834680  
3831.000000	99.833965  
3830.000000	99.832691  
3829.000000	99.831984  
3828.000000	99.832689  
3827.000000	99.834479  
3826.000000	99.836018  
3825.000000	99.836148  
3824.000000	99.835061  
3823.000000	99.834284  
3822.000000	99.835064  
3821.000000	99.836422  
3820.000000	99.836024  
3819.000000	99.832790  
3818.000000	99.827806  
3817.000000	99.823575  
3816.000000	99.822056  
3815.000000	99.822890  
3814.000000	99.823836  
3813.000000	99.822806  
3812.000000	99.818959  
3811.000000	99.812634  
3810.000000	99.805166  
3809.000000	99.798687  
3808.000000	99.795098  
3807.000000	99.794707  
3806.000000	99.796342  
3805.000000	99.798860  
3804.000000	99.802007  
3803.000000	99.805664  
3802.000000	99.808958  
3801.000000	99.811032  
3800.000000	99.812694  
3799.000000	99.815804  
3798.000000	99.820951  
3797.000000	99.826282  
3796.000000	99.828620  
3795.000000	99.826219  
3794.000000	99.820273  
3793.000000	99.813835  
3792.000000	99.809595  
3791.000000	99.808315  
3790.000000	99.808678  
3789.000000	99.808352  
3788.000000	99.805692  
3787.000000	99.801068  
3786.000000	99.796589  
3785.000000	99.794164  
3784.000000	99.793605  
3783.000000	99.792866  
3782.000000	99.790187  
3781.000000	99.785792  
3780.000000	99.781658  
3779.000000	99.779729  
3778.000000	99.780424  
3777.000000	99.782709  
3776.000000	99.785279  
3775.000000	99.787542  
3774.000000	99.789700  
3773.000000	99.792211  
3772.000000	99.795087  
3771.000000	99.797391  
3770.000000	99.797547  
3769.000000	99.794741  
3768.000000	99.789934  
3767.000000	99.785224  
3766.000000	99.782360  
3765.000000	99.781883  
3764.000000	99.783142  
3763.000000	99.785002  
3762.000000	99.786419  
3761.000000	99.786541  
3760.000000	99.785081  
3759.000000	99.782944  
3758.000000	99.781980  
3757.000000	99.782996  
3756.000000	99.784732  
3755.000000	99.785433  
3754.000000	99.784859  
3753.000000	99.784412  
3752.000000	99.785047  
3751.000000	99.785660  
3750.000000	99.784849  
3749.000000	99.782738  
3748.000000	99.779859  
3747.000000	99.776189  
3746.000000	99.772040  
3745.000000	99.768692  
3744.000000	99.766748  
3743.000000	99.765350  
3742.000000	99.763817  
3741.000000	99.762761  
3740.000000	99.763465  
3739.000000	99.766489  
3738.000000	99.771032  
3737.000000	99.775241  
3736.000000	99.777321  
3735.000000	99.777200  
3734.000000	99.776459  
3733.000000	99.776207  
3732.000000	99.775826  
3731.000000	99.774103  
3730.000000	99.770617  
3729.000000	99.765785  
3728.000000	99.760456  
3727.000000	99.755941  
3726.000000	99.753625  
3725.000000	99.753721  
3724.000000	99.754373  
3723.000000	99.752863  
3722.000000	99.748269  
3721.000000	99.742593  
3720.000000	99.738899  
3719.000000	99.738099  
3718.000000	99.738255  
3717.000000	99.736758  
3716.000000	99.732762  
3715.000000	99.727837  
3714.000000	99.724598  
3713.000000	99.724438  
3712.000000	99.726182  
3711.000000	99.727346  
3710.000000	99.726849  
3709.000000	99.725008  
3708.000000	99.721855  
3707.000000	99.717045  
3706.000000	99.710817  
3705.000000	99.704526  
3704.000000	99.700016  
3703.000000	99.698337  
3702.000000	99.699049  
3701.000000	99.700804  
3700.000000	99.702765  
3699.000000	99.704948  
3698.000000	99.707434  
3697.000000	99.709629  
3696.000000	99.710351  
3695.000000	99.708855  
3694.000000	99.705697  
3693.000000	99.702315  
3692.000000	99.699614  
3691.000000	99.697034  
3690.000000	99.693472  
3689.000000	99.689334  
3688.000000	99.686631  
3687.000000	99.686441  
3686.000000	99.687659  
3685.000000	99.688450  
3684.000000	99.687914  
3683.000000	99.686419  
3682.000000	99.684870  
3681.000000	99.683595  
3680.000000	99.681907  
3679.000000	99.679100  
3678.000000	99.675834  
3677.000000	99.674336  
3676.000000	99.676037  
3675.000000	99.678996  
3674.000000	99.679771  
3673.000000	99.676715  
3672.000000	99.670340  
3671.000000	99.662385  
3670.000000	99.654909  
3669.000000	99.649405  
3668.000000	99.646105  
3667.000000	99.644043  
3666.000000	99.641932  
3665.000000	99.639124  
3664.000000	99.635947  
3663.000000	99.633251  
3662.000000	99.631562  
3661.000000	99.630519  
3660.000000	99.629026  
3659.000000	99.626171  
3658.000000	99.621967  
3657.000000	99.617334  
3656.000000	99.613230  
3655.000000	99.609823  
3654.000000	99.606693  
3653.000000	99.603549  
3652.000000	99.600510  
3651.000000	99.597806  
3650.000000	99.595522  
3649.000000	99.593936  
3648.000000	99.593225  
3647.000000	99.592495  
3646.000000	99.590431  
3645.000000	99.586892  
3644.000000	99.583111  
3643.000000	99.580279  
3642.000000	99.578059  
3641.000000	99.574706  
3640.000000	99.568846  
3639.000000	99.561157  
3638.000000	99.554171  
3637.000000	99.550407  
3636.000000	99.550685  
3635.000000	99.553620  
3634.000000	99.556438  
3633.000000	99.556959  
3632.000000	99.555258  
3631.000000	99.553480  
3630.000000	99.553789  
3629.000000	99.555764  
3628.000000	99.556996  
3627.000000	99.555946  
3626.000000	99.552165  
3625.000000	99.545377  
3624.000000	99.535934  
3623.000000	99.525884  
3622.000000	99.518702  
3621.000000	99.517116  
3620.000000	99.520791  
3619.000000	99.526176  
3618.000000	99.529783  
3617.000000	99.530847  
3616.000000	99.530291  
3615.000000	99.529177  
3614.000000	99.528391  
3613.000000	99.528587  
3612.000000	99.529802  
3611.000000	99.531449  
3610.000000	99.533068  
3609.000000	99.534914  
3608.000000	99.537463  
3607.000000	99.540319  
3606.000000	99.542220  
3605.000000	99.542360  
3604.000000	99.541416  
3603.000000	99.541078  
3602.000000	99.542420  
3601.000000	99.544908  
3600.000000	99.547223  
3599.000000	99.548842  
3598.000000	99.550532  
3597.000000	99.553436  
3596.000000	99.557869  
3595.000000	99.562868  
3594.000000	99.566684  
3593.000000	99.568197  
3592.000000	99.568231  
3591.000000	99.569396  
3590.000000	99.574229  
3589.000000	99.582654  
3588.000000	99.590842  
3587.000000	99.594434  
3586.000000	99.592864  
3585.000000	99.588820  
3584.000000	99.584815  
3583.000000	99.581555  
3582.000000	99.578950  
3581.000000	99.577447  
3580.000000	99.577939  
3579.000000	99.580739  
3578.000000	99.585101  
3577.000000	99.589906  
3576.000000	99.594666  
3575.000000	99.599444  
3574.000000	99.604022  
3573.000000	99.607621  
3572.000000	99.609660  
3571.000000	99.610518  
3570.000000	99.611292  
3569.000000	99.612695  
3568.000000	99.614249  
3567.000000	99.615068  
3566.000000	99.615428  
3565.000000	99.616650  
3564.000000	99.619514  
3563.000000	99.623539  
3562.000000	99.627489  
3561.000000	99.630260  
3560.000000	99.631490  
3559.000000	99.631594  
3558.000000	99.631403  
3557.000000	99.631676  
3556.000000	99.632891  
3555.000000	99.635309  
3554.000000	99.638900  
3553.000000	99.643016  
3552.000000	99.646440  
3551.000000	99.648229  
3550.000000	99.648518  
3549.000000	99.648291  
3548.000000	99.648315  
3547.000000	99.648627  
3546.000000	99.649212  
3545.000000	99.650681  
3544.000000	99.653628  
3543.000000	99.657478  
3542.000000	99.660802  
3541.000000	99.662824  
3540.000000	99.664128  
3539.000000	99.665877  
3538.000000	99.668594  
3537.000000	99.671970  
3536.000000	99.675584  
3535.000000	99.679395  
3534.000000	99.683498  
3533.000000	99.687766  
3532.000000	99.691880  
3531.000000	99.695484  
3530.000000	99.698277  
3529.000000	99.700150  
3528.000000	99.701290  
3527.000000	99.701984  
3526.000000	99.702315  
3525.000000	99.702278  
3524.000000	99.702236  
3523.000000	99.702928  
3522.000000	99.704905  
3521.000000	99.708156  
3520.000000	99.712374  
3519.000000	99.717233  
3518.000000	99.722083  
3517.000000	99.725806  
3516.000000	99.727471  
3515.000000	99.727205  
3514.000000	99.726329  
3513.000000	99.726570  
3512.000000	99.729070  
3511.000000	99.734002  
3510.000000	99.740579  
3509.000000	99.747279  
3508.000000	99.752565  
3507.000000	99.755868  
3506.000000	99.757876  
3505.000000	99.759940  
3504.000000	99.763019  
3503.000000	99.767043  
3502.000000	99.771267  
3501.000000	99.775091  
3500.000000	99.778441  
3499.000000	99.781462  
3498.000000	99.784078  
3497.000000	99.785998  
3496.000000	99.787114  
3495.000000	99.787782  
3494.000000	99.788650  
3493.000000	99.790256  
3492.000000	99.792822  
3491.000000	99.796273  
3490.000000	99.800209  
3489.000000	99.803905  
3488.000000	99.806641  
3487.000000	99.808294  
3486.000000	99.809617  
3485.000000	99.811692  
3484.000000	99.814865  
3483.000000	99.818259  
3482.000000	99.820581  
3481.000000	99.821593  
3480.000000	99.822521  
3479.000000	99.824659  
3478.000000	99.827681  
3477.000000	99.829854  
3476.000000	99.830130  
3475.000000	99.829713  
3474.000000	99.830996  
3473.000000	99.834999  
3472.000000	99.840474  
3471.000000	99.845394  
3470.000000	99.848912  
3469.000000	99.851501  
3468.000000	99.853906  
3467.000000	99.856609  
3466.000000	99.860077  
3465.000000	99.864715  
3464.000000	99.870127  
3463.000000	99.874756  
3462.000000	99.876866  
3461.000000	99.875987  
3460.000000	99.873358  
3459.000000	99.870865  
3458.000000	99.869590  
3457.000000	99.869654  
3456.000000	99.871000  
3455.000000	99.873733  
3454.000000	99.877654  
3453.000000	99.882199  
3452.000000	99.887250  
3451.000000	99.893419  
3450.000000	99.900858  
3449.000000	99.908245  
3448.000000	99.914004  
3447.000000	99.918411  
3446.000000	99.923283  
3445.000000	99.929166  
3444.000000	99.934171  
3443.000000	99.936469  
3442.000000	99.936976  
3441.000000	99.938468  
3440.000000	99.942094  
3439.000000	99.946038  
3438.000000	99.948080  
3437.000000	99.948450  
3436.000000	99.949339  
3435.000000	99.951953  
3434.000000	99.954982  
3433.000000	99.956393  
3432.000000	99.956136  
3431.000000	99.956256  
3430.000000	99.958339  
3429.000000	99.961649  
3428.000000	99.964365  
3427.000000	99.966021  
3426.000000	99.967808  
3425.000000	99.970780  
3424.000000	99.974836  
3423.000000	99.979416  
3422.000000	99.984001  
3421.000000	99.987658  
3420.000000	99.989402  
3419.000000	99.989794  
3418.000000	99.991098  
3417.000000	99.994664  
3416.000000	99.998973  
3415.000000	100.001548 
3414.000000	100.002151 
3413.000000	100.002697 
3412.000000	100.004134 
3411.000000	100.004993 
3410.000000	100.003696 
3409.000000	100.000852 
3408.000000	99.998503  
3407.000000	99.997696  
3406.000000	99.997894  
3405.000000	99.998385  
3404.000000	99.999098  
3403.000000	99.999956  
3402.000000	100.000431 
3401.000000	100.000346 
3400.000000	100.000581 
3399.000000	100.002274 
3398.000000	100.005371 
3397.000000	100.008330 
3396.000000	100.009486 
3395.000000	100.008563 
3394.000000	100.006746 
3393.000000	100.005594 
3392.000000	100.005803 
3391.000000	100.006913 
3390.000000	100.007967 
3389.000000	100.008437 
3388.000000	100.008707 
3387.000000	100.009712 
3386.000000	100.011935 
3385.000000	100.014624 
3384.000000	100.016174 
3383.000000	100.015582 
3382.000000	100.013335 
3381.000000	100.010987 
3380.000000	100.009819 
3379.000000	100.009988 
3378.000000	100.010847 
3377.000000	100.011669 
3376.000000	100.012112 
3375.000000	100.012287 
3374.000000	100.012544 
3373.000000	100.013072 
3372.000000	100.013560 
3371.000000	100.013436 
3370.000000	100.012538 
3369.000000	100.011344 
3368.000000	100.010382 
3367.000000	100.009497 
3366.000000	100.008031 
3365.000000	100.005754 
3364.000000	100.003386 
3363.000000	100.002012 
3362.000000	100.002004 
3361.000000	100.002650 
3360.000000	100.002822 
3359.000000	100.002058 
3358.000000	100.000880 
3357.000000	100.000042 
3356.000000	99.999561  
3355.000000	99.998628  
3354.000000	99.996423  
3353.000000	99.992875  
3352.000000	99.988810  
3351.000000	99.985491  
3350.000000	99.983902  
3349.000000	99.984170  
3348.000000	99.985290  
3347.000000	99.985722  
3346.000000	99.984707  
3345.000000	99.982854  
3344.000000	99.981330  
3343.000000	99.980461  
3342.000000	99.979457  
3341.000000	99.977525  
3340.000000	99.974806  
3339.000000	99.972013  
3338.000000	99.969537  
3337.000000	99.967330  
3336.000000	99.965484  
3335.000000	99.964382  
3334.000000	99.964045  
3333.000000	99.963668  
3332.000000	99.962240  
3331.000000	99.959624  
3330.000000	99.956761  
3329.000000	99.954615  
3328.000000	99.953030  
3327.000000	99.950987  
3326.000000	99.947951  
3325.000000	99.944540  
3324.000000	99.941734  
3323.000000	99.939629  
3322.000000	99.937352  
3321.000000	99.934099  
3320.000000	99.929865  
3319.000000	99.925176  
3318.000000	99.920532  
3317.000000	99.916343  
3316.000000	99.912952  
3315.000000	99.910296  
3314.000000	99.907710  
3313.000000	99.904473  
3312.000000	99.900639  
3311.000000	99.897032  
3310.000000	99.894286  
3309.000000	99.892172  
3308.000000	99.889878  
3307.000000	99.886782  
3306.000000	99.882827  
3305.000000	99.878316  
3304.000000	99.873720  
3303.000000	99.869553  
3302.000000	99.866083  
3301.000000	99.863078  
3300.000000	99.859910  
3299.000000	99.856109  
3298.000000	99.851743  
3297.000000	99.847219  
3296.000000	99.842870  
3295.000000	99.838786  
3294.000000	99.834935  
3293.000000	99.831244  
3292.000000	99.827607  
3291.000000	99.823946  
3290.000000	99.820235  
3289.000000	99.816422  
3288.000000	99.812395  
3287.000000	99.808122  
3286.000000	99.803821  
3285.000000	99.799820  
3284.000000	99.796230  
3283.000000	99.792861  
3282.000000	99.789473  
3281.000000	99.786031  
3280.000000	99.782577  
3279.000000	99.778971  
3278.000000	99.774932  
3277.000000	99.770354  
3276.000000	99.765533  
3275.000000	99.761016  
3274.000000	99.757171  
3273.000000	99.753998  
3272.000000	99.751173  
3271.000000	99.748268  
3270.000000	99.745028  
3269.000000	99.741546  
3268.000000	99.738143  
3267.000000	99.734984  
3266.000000	99.731852  
3265.000000	99.728411  
3264.000000	99.724639  
3263.000000	99.720900  
3262.000000	99.717523  
3261.000000	99.714376  
3260.000000	99.710943  
3259.000000	99.706912  
3258.000000	99.702615  
3257.000000	99.698739  
3256.000000	99.695512  
3255.000000	99.692414  
3254.000000	99.688806  
3253.000000	99.684734  
3252.000000	99.680893  
3251.000000	99.677794  
3250.000000	99.675228  
3249.000000	99.672546  
3248.000000	99.669282  
3247.000000	99.665376  
3246.000000	99.661030  
3245.000000	99.656594  
3244.000000	99.652447  
3243.000000	99.648665  
3242.000000	99.644830  
3241.000000	99.640429  
3240.000000	99.635487  
3239.000000	99.630654  
3238.000000	99.626529  
3237.000000	99.623066  
3236.000000	99.619761  
3235.000000	99.616239  
3234.000000	99.612510  
3233.000000	99.608663  
3232.000000	99.604629  
3231.000000	99.600365  
3230.000000	99.596078  
3229.000000	99.592108  
3228.000000	99.588563  
3227.000000	99.585216  
3226.000000	99.581742  
3225.000000	99.578004  
3224.000000	99.574103  
3223.000000	99.570238  
3222.000000	99.566577  
3221.000000	99.563134  
3220.000000	99.559640  
3219.000000	99.555650  
3218.000000	99.550998  
3217.000000	99.546002  
3216.000000	99.541224  
3215.000000	99.536923  
3214.000000	99.532918  
3213.000000	99.528895  
3212.000000	99.524706  
3211.000000	99.520415  
3210.000000	99.516150  
3209.000000	99.511987  
3208.000000	99.507932  
3207.000000	99.503938  
3206.000000	99.499932  
3205.000000	99.495875  
3204.000000	99.491787  
3203.000000	99.487711  
3202.000000	99.483676  
3201.000000	99.479686  
3200.000000	99.475730  
3199.000000	99.471796  
3198.000000	99.467870  
3197.000000	99.463944  
3196.000000	99.460014  
3195.000000	99.456085  
3194.000000	99.452167  
3193.000000	99.448269  
3192.000000	99.444386  
3191.000000	99.440504  
3190.000000	99.436616  
3189.000000	99.432723  
3188.000000	99.428839  
3187.000000	99.424978  
3186.000000	99.421142  
3185.000000	99.417325  
3184.000000	99.413519  
3183.000000	99.409719  
3182.000000	99.405927  
3181.000000	99.402152  
3180.000000	99.398408  
3179.000000	99.394706  
3178.000000	99.391054  
3177.000000	99.387453  
3176.000000	99.383902  
3175.000000	99.380394  
3174.000000	99.376918  
3173.000000	99.373443  
3172.000000	99.369938  
3171.000000	99.366402  
3170.000000	99.362860  
3169.000000	99.359323  
3168.000000	99.355793  
3167.000000	99.352313  
3166.000000	99.348956  
3165.000000	99.345735  
3164.000000	99.342536  
3163.000000	99.339213  
3162.000000	99.335726  
3161.000000	99.332216  
3160.000000	99.328882  
3159.000000	99.325785  
3158.000000	99.322800  
3157.000000	99.319735  
3156.000000	99.316510  
3155.000000	99.313231  
3154.000000	99.310143  
3153.000000	99.307428  
3152.000000	99.305041  
3151.000000	99.302719  
3150.000000	99.300215  
3149.000000	99.297563  
3148.000000	99.294992  
3147.000000	99.292596  
3146.000000	99.290194  
3145.000000	99.287583  
3144.000000	99.284812  
3143.000000	99.282083  
3142.000000	99.279417  
3141.000000	99.276643  
3140.000000	99.273769  
3139.000000	99.271111  
3138.000000	99.268927  
3137.000000	99.267102  
3136.000000	99.265238  
3135.000000	99.263025  
3134.000000	99.260439  
3133.000000	99.257672  
3132.000000	99.255009  
3131.000000	99.252663  
3130.000000	99.250653  
3129.000000	99.248822  
3128.000000	99.247032  
3127.000000	99.245311  
3126.000000	99.243716  
3125.000000	99.242145  
3124.000000	99.240410  
3123.000000	99.238448  
3122.000000	99.236372  
3121.000000	99.234328  
3120.000000	99.232382  
3119.000000	99.230523  
3118.000000	99.228714  
3117.000000	99.226934  
3116.000000	99.225216  
3115.000000	99.223630  
3114.000000	99.222145  
3113.000000	99.220529  
3112.000000	99.218531  
3111.000000	99.216152  
3110.000000	99.213762  
3109.000000	99.211841  
3108.000000	99.210603  
3107.000000	99.209869  
3106.000000	99.209157  
3105.000000	99.208033  
3104.000000	99.206335  
3103.000000	99.204199  
3102.000000	99.201937  
3101.000000	99.199850  
3100.000000	99.198136  
3099.000000	99.196801  
3098.000000	99.195608  
3097.000000	99.194243  
3096.000000	99.192606  
3095.000000	99.190821  
3094.000000	99.188863  
3093.000000	99.186407  
3092.000000	99.183336  
3091.000000	99.180270  
3090.000000	99.178144  
3089.000000	99.177267  
3088.000000	99.177074  
3087.000000	99.176786  
3086.000000	99.176112  
3085.000000	99.175146  
3084.000000	99.173948  
3083.000000	99.172451  
3082.000000	99.170596  
3081.000000	99.168356  
3080.000000	99.165811  
3079.000000	99.163389  
3078.000000	99.161846  
3077.000000	99.161680  
3076.000000	99.162520  
3075.000000	99.163233  
3074.000000	99.162783  
3073.000000	99.161091  
3072.000000	99.159228  
3071.000000	99.158664  
3070.000000	99.159981  
3069.000000	99.162172  
3068.000000	99.163507  
3067.000000	99.163304  
3066.000000	99.162494  
3065.000000	99.162452  
3064.000000	99.163535  
3063.000000	99.164791  
3062.000000	99.164574  
3061.000000	99.161400  
3060.000000	99.155166  
3059.000000	99.148255  
3058.000000	99.144306  
3057.000000	99.144740  
3056.000000	99.147090  
3055.000000	99.148011  
3054.000000	99.147771  
3053.000000	99.149560  
3052.000000	99.154342  
3051.000000	99.158631  
3050.000000	99.158590  
3049.000000	99.154867  
3048.000000	99.151726  
3047.000000	99.152049  
3046.000000	99.154796  
3045.000000	99.157072  
3044.000000	99.157167  
3043.000000	99.155378  
3042.000000	99.153142  
3041.000000	99.151967  
3040.000000	99.152398  
3039.000000	99.153390  
3038.000000	99.153282  
3037.000000	99.152203  
3036.000000	99.153190  
3035.000000	99.159702  
3034.000000	99.171527  
3033.000000	99.184042  
3032.000000	99.192744  
3031.000000	99.197973  
3030.000000	99.203672  
3029.000000	99.211581  
3028.000000	99.218625  
3027.000000	99.220965  
3026.000000	99.218934  
3025.000000	99.216239  
3024.000000	99.215212  
3023.000000	99.214956  
3022.000000	99.214051  
3021.000000	99.212901  
3020.000000	99.212905  
3019.000000	99.215112  
3018.000000	99.220531  
3017.000000	99.230013  
3016.000000	99.242376  
3015.000000	99.253966  
3014.000000	99.261993  
3013.000000	99.267879  
3012.000000	99.275551  
3011.000000	99.286480  
3010.000000	99.298025  
3009.000000	99.307081  
3008.000000	99.313977  
3007.000000	99.321778  
3006.000000	99.332462  
3005.000000	99.344913  
3004.000000	99.356504  
3003.000000	99.365731  
3002.000000	99.373168  
3001.000000	99.380833  
3000.000000	99.391446  
2999.000000	99.407613  
2998.000000	99.430090  
2997.000000	99.456092  
2996.000000	99.480182  
2995.000000	99.498273  
2994.000000	99.511449  
2993.000000	99.525690  
2992.000000	99.547465  
2991.000000	99.578903  
2990.000000	99.616343  
2989.000000	99.653429  
2988.000000	99.686594  
2987.000000	99.718167  
2986.000000	99.753725  
2985.000000	99.795836  
2984.000000	99.840872  
2983.000000	99.882529  
2982.000000	99.917757  
2981.000000	99.948279  
2980.000000	99.976858  
2979.000000	100.003354 
2978.000000	100.024651 
2977.000000	100.037479 
2976.000000	100.041039 
2975.000000	100.037519 
2974.000000	100.029803 
2973.000000	100.017692 
2972.000000	99.996837  
2971.000000	99.963245  
2970.000000	99.919066  
2969.000000	99.872118  
2968.000000	99.828865  
2967.000000	99.789443  
2966.000000	99.750666  
2965.000000	99.711614  
2964.000000	99.674006  
2963.000000	99.638650  
2962.000000	99.604599  
2961.000000	99.571944  
2960.000000	99.542976  
2959.000000	99.519979  
2958.000000	99.503648  
2957.000000	99.494219  
2956.000000	99.492130  
2955.000000	99.496146  
2954.000000	99.501928  
2953.000000	99.504252  
2952.000000	99.500850  
2951.000000	99.493570  
2950.000000	99.485992  
2949.000000	99.480435  
2948.000000	99.477070  
2947.000000	99.475173  
2946.000000	99.474798  
2945.000000	99.476994  
2944.000000	99.482350  
2943.000000	99.489775  
2942.000000	99.497222  
2941.000000	99.503535  
2940.000000	99.509163  
2939.000000	99.515390  
2938.000000	99.523397  
2937.000000	99.533565  
2936.000000	99.544712  
2935.000000	99.554411  
2934.000000	99.561362  
2933.000000	99.567170  
2932.000000	99.574083  
2931.000000	99.580772  
2930.000000	99.582292  
2929.000000	99.575188  
2928.000000	99.561439  
2927.000000	99.546701  
2926.000000	99.536106  
2925.000000	99.532454  
2924.000000	99.536201  
2923.000000	99.544632  
2922.000000	99.552101  
2921.000000	99.554050  
2920.000000	99.551086  
2919.000000	99.547535  
2918.000000	99.546237  
2917.000000	99.546611  
2916.000000	99.547416  
2915.000000	99.548767  
2914.000000	99.550744  
2913.000000	99.552397  
2912.000000	99.553634  
2911.000000	99.556402  
2910.000000	99.562087  
2909.000000	99.568777  
2908.000000	99.573158  
2907.000000	99.574905  
2906.000000	99.577422  
2905.000000	99.584032  
2904.000000	99.594902  
2903.000000	99.607929  
2902.000000	99.620996  
2901.000000	99.632212  
2900.000000	99.638954  
2899.000000	99.638642  
2898.000000	99.631085  
2897.000000	99.619634  
2896.000000	99.609509  
2895.000000	99.604388  
2894.000000	99.604033  
2893.000000	99.604667  
2892.000000	99.602006  
2891.000000	99.594903  
2890.000000	99.586437  
2889.000000	99.581023  
2888.000000	99.580223  
2887.000000	99.581631  
2886.000000	99.581818  
2885.000000	99.579773  
2884.000000	99.577037  
2883.000000	99.575166  
2882.000000	99.573970  
2881.000000	99.572170  
2880.000000	99.568956  
2879.000000	99.564659  
2878.000000	99.560322  
2877.000000	99.556666  
2876.000000	99.552801  
2875.000000	99.545924  
2874.000000	99.533260  
2873.000000	99.515141  
2872.000000	99.495893  
2871.000000	99.480792  
2870.000000	99.471814  
2869.000000	99.466543  
2868.000000	99.460972  
2867.000000	99.453115  
2866.000000	99.444163  
2865.000000	99.436515  
2864.000000	99.430832  
2863.000000	99.425150  
2862.000000	99.417142  
2861.000000	99.406947  
2860.000000	99.396868  
2859.000000	99.388236  
2858.000000	99.379748  
2857.000000	99.369467  
2856.000000	99.357291  
2855.000000	99.344626  
2854.000000	99.332936  
2853.000000	99.324030  
2852.000000	99.320382  
2851.000000	99.322614  
2850.000000	99.326686  
2849.000000	99.326069  
2848.000000	99.318191  
2847.000000	99.307155  
2846.000000	99.299015  
2845.000000	99.295531  
2844.000000	99.293822  
2843.000000	99.290924  
2842.000000	99.286868  
2841.000000	99.283300  
2840.000000	99.280789  
2839.000000	99.278290  
2838.000000	99.274610  
2837.000000	99.269695  
2836.000000	99.264544  
2835.000000	99.260126  
2834.000000	99.256498  
2833.000000	99.253001  
2832.000000	99.249170  
2831.000000	99.245132  
2830.000000	99.241211  
2829.000000	99.237656  
2828.000000	99.234899  
2827.000000	99.233449  
2826.000000	99.233220  
2825.000000	99.233382  
2824.000000	99.233130  
2823.000000	99.232234  
2822.000000	99.230634  
2821.000000	99.228024  
2820.000000	99.224179  
2819.000000	99.219258  
2818.000000	99.213646  
2817.000000	99.208119  
2816.000000	99.204296  
2815.000000	99.203847  
2814.000000	99.206583  
2813.000000	99.209930  
2812.000000	99.211246  
2811.000000	99.210303  
2810.000000	99.208618  
2809.000000	99.207068  
2808.000000	99.205199  
2807.000000	99.202639  
2806.000000	99.199971  
2805.000000	99.197855  
2804.000000	99.196134  
2803.000000	99.194328  
2802.000000	99.192354  
2801.000000	99.190425  
2800.000000	99.188789  
2799.000000	99.187830  
2798.000000	99.187979  
2797.000000	99.189114  
2796.000000	99.190273  
2795.000000	99.190260  
2794.000000	99.188500  
2793.000000	99.185338  
2792.000000	99.181890  
2791.000000	99.179586  
2790.000000	99.179346  
2789.000000	99.180937  
2788.000000	99.183103  
2787.000000	99.184638  
2786.000000	99.185331  
2785.000000	99.185784  
2784.000000	99.186543  
2783.000000	99.187505  
2782.000000	99.188041  
2781.000000	99.187676  
2780.000000	99.186664  
2779.000000	99.185810  
2778.000000	99.185600  
2777.000000	99.185678  
2776.000000	99.185454  
2775.000000	99.184961  
2774.000000	99.184651  
2773.000000	99.184508  
2772.000000	99.183920  
2771.000000	99.182472  
2770.000000	99.180375  
2769.000000	99.178160  
2768.000000	99.176453  
2767.000000	99.175951  
2766.000000	99.176902  
2765.000000	99.178392  
2764.000000	99.178841  
2763.000000	99.177707  
2762.000000	99.176139  
2761.000000	99.175526  
2760.000000	99.175811  
2759.000000	99.175778  
2758.000000	99.174702  
2757.000000	99.173226  
2756.000000	99.172660  
2755.000000	99.173735  
2754.000000	99.175972  
2753.000000	99.177977  
2752.000000	99.178722  
2751.000000	99.178718  
2750.000000	99.179517  
2749.000000	99.181853  
2748.000000	99.184697  
2747.000000	99.186518  
2746.000000	99.187003  
2745.000000	99.186853  
2744.000000	99.186372  
2743.000000	99.185124  
2742.000000	99.182960  
2741.000000	99.180486  
2740.000000	99.178363  
2739.000000	99.176776  
2738.000000	99.175800  
2737.000000	99.175694  
2736.000000	99.176617  
2735.000000	99.178416  
2734.000000	99.180748  
2733.000000	99.183025  
2732.000000	99.184354  
2731.000000	99.184214  
2730.000000	99.183331  
2729.000000	99.183253  
2728.000000	99.184709  
2727.000000	99.186852  
2726.000000	99.188311  
2725.000000	99.188576  
2724.000000	99.188091  
2723.000000	99.187482  
2722.000000	99.186976  
2721.000000	99.186213  
2720.000000	99.184455  
2719.000000	99.181467  
2718.000000	99.178388  
2717.000000	99.177146  
2716.000000	99.178637  
2715.000000	99.181925  
2714.000000	99.185419  
2713.000000	99.188394  
2712.000000	99.190946  
2711.000000	99.192999  
2710.000000	99.194067  
2709.000000	99.193936  
2708.000000	99.193125  
2707.000000	99.192687  
2706.000000	99.193487  
2705.000000	99.195230  
2704.000000	99.196247  
2703.000000	99.194949  
2702.000000	99.191598  
2701.000000	99.188052  
2700.000000	99.185525  
2699.000000	99.183360  
2698.000000	99.180468  
2697.000000	99.177156  
2696.000000	99.174753  
2695.000000	99.173841  
2694.000000	99.173575  
2693.000000	99.172486  
2692.000000	99.169548  
2691.000000	99.164933  
2690.000000	99.160294  
2689.000000	99.157705  
2688.000000	99.157549  
2687.000000	99.157914  
2686.000000	99.156898  
2685.000000	99.155200  
2684.000000	99.155191  
2683.000000	99.157738  
2682.000000	99.161266  
2681.000000	99.163946  
2680.000000	99.165522  
2679.000000	99.166491  
2678.000000	99.166856  
2677.000000	99.166633  
2676.000000	99.166535  
2675.000000	99.167017  
2674.000000	99.167345  
2673.000000	99.166803  
2672.000000	99.166329  
2671.000000	99.167628  
2670.000000	99.170758  
2669.000000	99.173661  
2668.000000	99.174421  
2667.000000	99.173132  
2666.000000	99.171280  
2665.000000	99.170187  
2664.000000	99.170377  
2663.000000	99.171788  
2662.000000	99.173836  
2661.000000	99.175513  
2660.000000	99.176224  
2659.000000	99.176461  
2658.000000	99.177193  
2657.000000	99.178617  
2656.000000	99.179883  
2655.000000	99.180164  
2654.000000	99.179573  
2653.000000	99.178905  
2652.000000	99.178767  
2651.000000	99.179156  
2650.000000	99.179737  
2649.000000	99.180262  
2648.000000	99.180708  
2647.000000	99.181159  
2646.000000	99.181651  
2645.000000	99.182159  
2644.000000	99.182663  
2643.000000	99.183161  
2642.000000	99.183625  
2641.000000	99.184005  
2640.000000	99.184293  
2639.000000	99.184561  
2638.000000	99.184864  
2637.000000	99.185103  
2636.000000	99.185113  
2635.000000	99.184874  
2634.000000	99.184603  
2633.000000	99.184558  
2632.000000	99.184784  
2631.000000	99.185157  
2630.000000	99.185592  
2629.000000	99.186083  
2628.000000	99.186556  
2627.000000	99.186875  
2626.000000	99.187042  
2625.000000	99.187234  
2624.000000	99.187570  
2623.000000	99.187927  
2622.000000	99.188084  
2621.000000	99.187987  
2620.000000	99.187821  
2619.000000	99.187851  
2618.000000	99.188198  
2617.000000	99.188732  
2616.000000	99.189118  
2615.000000	99.189129  
2614.000000	99.188868  
2613.000000	99.188670  
2612.000000	99.188694  
2611.000000	99.188768  
2610.000000	99.188729  
2609.000000	99.188760  
2608.000000	99.189123  
2607.000000	99.189603  
2606.000000	99.189567  
2605.000000	99.188692  
2604.000000	99.187442  
2603.000000	99.186639  
2602.000000	99.186561  
2601.000000	99.186825  
2600.000000	99.187078  
2599.000000	99.187538  
2598.000000	99.188596  
2597.000000	99.190182  
2596.000000	99.191750  
2595.000000	99.192822  
2594.000000	99.193363  
2593.000000	99.193659  
2592.000000	99.193931  
2591.000000	99.194111  
2590.000000	99.194029  
2589.000000	99.193772  
2588.000000	99.193741  
2587.000000	99.194296  
2586.000000	99.195326  
2585.000000	99.196252  
2584.000000	99.196554  
2583.000000	99.196247  
2582.000000	99.195721  
2581.000000	99.195163  
2580.000000	99.194417  
2579.000000	99.193588  
2578.000000	99.193422  
2577.000000	99.194635  
2576.000000	99.197000  
2575.000000	99.199372  
2574.000000	99.200902  
2573.000000	99.201803  
2572.000000	99.202773  
2571.000000	99.204204  
2570.000000	99.206115  
2569.000000	99.208314  
2568.000000	99.210273  
2567.000000	99.211266  
2566.000000	99.211193  
2565.000000	99.211072  
2564.000000	99.212085  
2563.000000	99.214109  
2562.000000	99.215856  
2561.000000	99.216565  
2560.000000	99.216797  
2559.000000	99.217370  
2558.000000	99.218224  
2557.000000	99.218845  
2556.000000	99.219260  
2555.000000	99.219960  
2554.000000	99.221095  
2553.000000	99.222236  
2552.000000	99.222990  
2551.000000	99.223446  
2550.000000	99.223932  
2549.000000	99.224590  
2548.000000	99.225285  
2547.000000	99.225800  
2546.000000	99.226097  
2545.000000	99.226415  
2544.000000	99.227017  
2543.000000	99.227793  
2542.000000	99.228301  
2541.000000	99.228376  
2540.000000	99.228483  
2539.000000	99.229205  
2538.000000	99.230495  
2537.000000	99.231678  
2536.000000	99.232176  
2535.000000	99.231930  
2534.000000	99.231144  
2533.000000	99.230026  
2532.000000	99.228891  
2531.000000	99.228227  
2530.000000	99.228344  
2529.000000	99.229054  
2528.000000	99.229881  
2527.000000	99.230539  
2526.000000	99.231058  
2525.000000	99.231530  
2524.000000	99.232020  
2523.000000	99.232700  
2522.000000	99.233784  
2521.000000	99.235156  
2520.000000	99.236198  
2519.000000	99.236242  
2518.000000	99.235193  
2517.000000	99.233672  
2516.000000	99.232577  
2515.000000	99.232314  
2514.000000	99.232606  
2513.000000	99.232908  
2512.000000	99.232957  
2511.000000	99.232886  
2510.000000	99.232845  
2509.000000	99.232798  
2508.000000	99.232747  
2507.000000	99.232868  
2506.000000	99.233252  
2505.000000	99.233638  
2504.000000	99.233674  
2503.000000	99.233367  
2502.000000	99.233063  
2501.000000	99.233003  
2500.000000	99.233082  
2499.000000	99.233123  
2498.000000	99.233166  
2497.000000	99.233346  
2496.000000	99.233618  
2495.000000	99.233778  
2494.000000	99.233730  
2493.000000	99.233582  
2492.000000	99.233500  
2491.000000	99.233552  
2490.000000	99.233727  
2489.000000	99.233973  
2488.000000	99.234231  
2487.000000	99.234474  
2486.000000	99.234736  
2485.000000	99.235071  
2484.000000	99.235458  
2483.000000	99.235784  
2482.000000	99.235973  
2481.000000	99.236113  
2480.000000	99.236389  
2479.000000	99.236890  
2478.000000	99.237528  
2477.000000	99.238128  
2476.000000	99.238586  
2475.000000	99.238911  
2474.000000	99.239164  
2473.000000	99.239386  
2472.000000	99.239628  
2471.000000	99.240007  
2470.000000	99.240670  
2469.000000	99.241663  
2468.000000	99.242782  
2467.000000	99.243632  
2466.000000	99.243949  
2465.000000	99.243806  
2464.000000	99.243594  
2463.000000	99.243674  
2462.000000	99.244071  
2461.000000	99.244521  
2460.000000	99.244760  
2459.000000	99.244805  
2458.000000	99.244899  
2457.000000	99.245202  
2456.000000	99.245622  
2455.000000	99.246009  
2454.000000	99.246411  
2453.000000	99.246975  
2452.000000	99.247636  
2451.000000	99.248067  
2450.000000	99.248099  
2449.000000	99.248115  
2448.000000	99.248804  
2447.000000	99.250476  
2446.000000	99.252684  
2445.000000	99.254512  
2444.000000	99.255459  
2443.000000	99.255779  
2442.000000	99.256070  
2441.000000	99.256494  
2440.000000	99.256708  
2439.000000	99.256489  
2438.000000	99.256069  
2437.000000	99.255776  
2436.000000	99.255677  
2435.000000	99.255771  
2434.000000	99.256296  
2433.000000	99.257491  
2432.000000	99.259158  
2431.000000	99.260767  
2430.000000	99.262004  
2429.000000	99.262971  
2428.000000	99.263804  
2427.000000	99.264371  
2426.000000	99.264515  
2425.000000	99.264389  
2424.000000	99.264320  
2423.000000	99.264345  
2422.000000	99.264090  
2421.000000	99.263279  
2420.000000	99.262341  
2419.000000	99.262287  
2418.000000	99.263847  
2417.000000	99.266819  
2416.000000	99.270183  
2415.000000	99.272822  
2414.000000	99.274225  
2413.000000	99.274519  
2412.000000	99.274295  
2411.000000	99.274385  
2410.000000	99.275286  
2409.000000	99.276603  
2408.000000	99.277287  
2407.000000	99.276818  
2406.000000	99.275971  
2405.000000	99.276011  
2404.000000	99.277186  
2403.000000	99.278436  
2402.000000	99.278667  
2401.000000	99.277879  
2400.000000	99.276864  
2399.000000	99.276211  
2398.000000	99.275951  
2397.000000	99.275899  
2396.000000	99.275876  
2395.000000	99.275686  
2394.000000	99.275237  
2393.000000	99.274728  
2392.000000	99.274533  
2391.000000	99.274751  
2390.000000	99.275127  
2389.000000	99.275387  
2388.000000	99.275519  
2387.000000	99.275650  
2386.000000	99.275806  
2385.000000	99.275918  
2384.000000	99.275985  
2383.000000	99.276084  
2382.000000	99.276249  
2381.000000	99.276441  
2380.000000	99.276629  
2379.000000	99.276827  
2378.000000	99.277053  
2377.000000	99.277309  
2376.000000	99.277597  
2375.000000	99.277926  
2374.000000	99.278312  
2373.000000	99.278769  
2372.000000	99.279296  
2371.000000	99.279871  
2370.000000	99.280472  
2369.000000	99.281085  
2368.000000	99.281708  
2367.000000	99.282352  
2366.000000	99.283033  
2365.000000	99.283773  
2364.000000	99.284581  
2363.000000	99.285453  
2362.000000	99.286375  
2361.000000	99.287341  
2360.000000	99.288351  
2359.000000	99.289409  
2358.000000	99.290518  
2357.000000	99.291671  
2356.000000	99.292872  
2355.000000	99.294134  
2354.000000	99.295438  
2353.000000	99.296733  
2352.000000	99.297939  
2351.000000	99.299044  
2350.000000	99.300194  
2349.000000	99.301542  
2348.000000	99.303121  
2347.000000	99.304683  
2346.000000	99.306012  
2345.000000	99.307168  
2344.000000	99.308372  
2343.000000	99.309944  
2342.000000	99.311886  
2341.000000	99.313962  
2340.000000	99.315747  
2339.000000	99.317119  
2338.000000	99.318402  
2337.000000	99.320127  
2336.000000	99.322452  
2335.000000	99.325051  
2334.000000	99.327276  
2333.000000	99.329032  
2332.000000	99.330536  
2331.000000	99.331706  
2330.000000	99.332175  
2329.000000	99.331597  
2328.000000	99.330797  
2327.000000	99.330340  
2326.000000	99.330583  
2325.000000	99.331666  
2324.000000	99.333618  
2323.000000	99.336470  
2322.000000	99.339348  
2321.000000	99.341746  
2320.000000	99.343315  
2319.000000	99.344126  
2318.000000	99.343988  
2317.000000	99.342871  
2316.000000	99.341309  
2315.000000	99.340334  
2314.000000	99.340959  
2313.000000	99.343146  
2312.000000	99.345642  
2311.000000	99.346544  
2310.000000	99.345085  
2309.000000	99.342189  
2308.000000	99.339493  
2307.000000	99.337662  
2306.000000	99.336367  
2305.000000	99.335510  
2304.000000	99.335605  
2303.000000	99.336978  
2302.000000	99.338889  
2301.000000	99.340029  
2300.000000	99.339671  
2299.000000	99.338121  
2298.000000	99.336344  
2297.000000	99.335038  
2296.000000	99.334308  
2295.000000	99.333691  
2294.000000	99.332770  
2293.000000	99.331462  
2292.000000	99.330062  
2291.000000	99.328880  
2290.000000	99.328067  
2289.000000	99.327667  
2288.000000	99.327627  
2287.000000	99.327697  
2286.000000	99.327448  
2285.000000	99.326637  
2284.000000	99.325406  
2283.000000	99.324131  
2282.000000	99.323089  
2281.000000	99.322473  
2280.000000	99.322430  
2279.000000	99.322893  
2278.000000	99.323402  
2277.000000	99.323499  
2276.000000	99.323245  
2275.000000	99.323069  
2274.000000	99.323074  
2273.000000	99.322709  
2272.000000	99.321458  
2271.000000	99.319692  
2270.000000	99.318468  
2269.000000	99.318404  
2268.000000	99.319157  
2267.000000	99.319855  
2266.000000	99.319952  
2265.000000	99.319503  
2264.000000	99.318795  
2263.000000	99.317960  
2262.000000	99.317074  
2261.000000	99.316440  
2260.000000	99.316487  
2259.000000	99.317385  
2258.000000	99.318874  
2257.000000	99.320623  
2256.000000	99.322553  
2255.000000	99.324659  
2254.000000	99.326544  
2253.000000	99.327542  
2252.000000	99.327374  
2251.000000	99.326359  
2250.000000	99.325046  
2249.000000	99.323860  
2248.000000	99.323176  
2247.000000	99.323298  
2246.000000	99.324098  
2245.000000	99.324933  
2244.000000	99.325382  
2243.000000	99.325800  
2242.000000	99.326717  
2241.000000	99.327919  
2240.000000	99.328634  
2239.000000	99.328593  
2238.000000	99.328410  
2237.000000	99.328824  
2236.000000	99.329851  
2235.000000	99.330903  
2234.000000	99.331512  
2233.000000	99.331718  
2232.000000	99.331804  
2231.000000	99.331965  
2230.000000	99.332231  
2229.000000	99.332563  
2228.000000	99.332885  
2227.000000	99.333142  
2226.000000	99.333384  
2225.000000	99.333733  
2224.000000	99.334244  
2223.000000	99.334866  
2222.000000	99.335508  
2221.000000	99.336116  
2220.000000	99.336682  
2219.000000	99.337213  
2218.000000	99.337713  
2217.000000	99.338190  
2216.000000	99.338653  
2215.000000	99.339111  
2214.000000	99.339570  
2213.000000	99.340032  
2212.000000	99.340502  
2211.000000	99.340984  
2210.000000	99.341488  
2209.000000	99.342021  
2208.000000	99.342587  
2207.000000	99.343185  
2206.000000	99.343805  
2205.000000	99.344434  
2204.000000	99.345061  
2203.000000	99.345680  
2202.000000	99.346294  
2201.000000	99.346907  
2200.000000	99.347527  
2199.000000	99.348159  
2198.000000	99.348806  
2197.000000	99.349462  
2196.000000	99.350120  
2195.000000	99.350776  
2194.000000	99.351430  
2193.000000	99.352087  
2192.000000	99.352748  
2191.000000	99.353405  
2190.000000	99.354052  
2189.000000	99.354685  
2188.000000	99.355310  
2187.000000	99.355943  
2186.000000	99.356609  
2185.000000	99.357319  
2184.000000	99.358032  
2183.000000	99.358677  
2182.000000	99.359215  
2181.000000	99.359676  
2180.000000	99.360114  
2179.000000	99.360556  
2178.000000	99.361012  
2177.000000	99.361469  
2176.000000	99.361896  
2175.000000	99.362272  
2174.000000	99.362634  
2173.000000	99.363040  
2172.000000	99.363496  
2171.000000	99.363956  
2170.000000	99.364432  
2169.000000	99.365051  
2168.000000	99.365905  
2167.000000	99.366874  
2166.000000	99.367702  
2165.000000	99.368284  
2164.000000	99.368736  
2163.000000	99.369165  
2162.000000	99.369458  
2161.000000	99.369414  
2160.000000	99.369047  
2159.000000	99.368702  
2158.000000	99.368804  
2157.000000	99.369444  
2156.000000	99.370209  
2155.000000	99.370546  
2154.000000	99.370363  
2153.000000	99.370125  
2152.000000	99.370274  
2151.000000	99.370729  
2150.000000	99.371104  
2149.000000	99.371266  
2148.000000	99.371437  
2147.000000	99.371788  
2146.000000	99.372221  
2145.000000	99.372580  
2144.000000	99.372876  
2143.000000	99.373211  
2142.000000	99.373625  
2141.000000	99.374055  
2140.000000	99.374342  
2139.000000	99.374293  
2138.000000	99.373928  
2137.000000	99.373694  
2136.000000	99.374243  
2135.000000	99.375860  
2134.000000	99.378142  
2133.000000	99.380185  
2132.000000	99.381273  
2131.000000	99.381311  
2130.000000	99.380733  
2129.000000	99.380139  
2128.000000	99.379904  
2127.000000	99.380020  
2126.000000	99.380170  
2125.000000	99.379943  
2124.000000	99.379158  
2123.000000	99.378039  
2122.000000	99.377117  
2121.000000	99.376831  
2120.000000	99.377219  
2119.000000	99.377959  
2118.000000	99.378643  
2117.000000	99.379059  
2116.000000	99.379214  
2115.000000	99.379204  
2114.000000	99.379143  
2113.000000	99.379147  
2112.000000	99.379278  
2111.000000	99.379496  
2110.000000	99.379685  
2109.000000	99.379760  
2108.000000	99.379726  
2107.000000	99.379661  
2106.000000	99.379641  
2105.000000	99.379675  
2104.000000	99.379711  
2103.000000	99.379707  
2102.000000	99.379686  
2101.000000	99.379694  
2100.000000	99.379734  
2099.000000	99.379774  
2098.000000	99.379799  
2097.000000	99.379811  
2096.000000	99.379808  
2095.000000	99.379796  
2094.000000	99.379779  
2093.000000	99.379757  
2092.000000	99.379732  
2091.000000	99.379710  
2090.000000	99.379705  
2089.000000	99.379731  
2088.000000	99.379794  
2087.000000	99.379890  
2086.000000	99.380011  
2085.000000	99.380145  
2084.000000	99.380281  
2083.000000	99.380416  
2082.000000	99.380553  
2081.000000	99.380693  
2080.000000	99.380832  
2079.000000	99.380960  
2078.000000	99.381073  
2077.000000	99.381170  
2076.000000	99.381260  
2075.000000	99.381338  
2074.000000	99.381408  
2073.000000	99.381507  
2072.000000	99.381659  
2071.000000	99.381808  
2070.000000	99.381864  
2069.000000	99.381840  
2068.000000	99.381847  
2067.000000	99.381929  
2066.000000	99.382057  
2065.000000	99.382286  
2064.000000	99.382714  
2063.000000	99.383251  
2062.000000	99.383642  
2061.000000	99.383777  
2060.000000	99.383817  
2059.000000	99.383904  
2058.000000	99.383902  
2057.000000	99.383579  
2056.000000	99.382974  
2055.000000	99.382462  
2054.000000	99.382483  
2053.000000	99.383221  
2052.000000	99.384451  
2051.000000	99.385651  
2050.000000	99.386431  
2049.000000	99.386895  
2048.000000	99.387438  
2047.000000	99.388104  
2046.000000	99.388349  
2045.000000	99.387618  
2044.000000	99.385995  
2043.000000	99.384219  
2042.000000	99.383121  
2041.000000	99.383011  
2040.000000	99.383535  
2039.000000	99.383979  
2038.000000	99.383922  
2037.000000	99.383653  
2036.000000	99.383864  
2035.000000	99.384844  
2034.000000	99.386105  
2033.000000	99.386947  
2032.000000	99.387319  
2031.000000	99.387811  
2030.000000	99.388763  
2029.000000	99.389649  
2028.000000	99.389636  
2027.000000	99.388549  
2026.000000	99.387061  
2025.000000	99.386003  
2024.000000	99.385610  
2023.000000	99.385558  
2022.000000	99.385507  
2021.000000	99.385444  
2020.000000	99.385486  
2019.000000	99.385549  
2018.000000	99.385385  
2017.000000	99.384988  
2016.000000	99.384797  
2015.000000	99.385302  
2014.000000	99.386534  
2013.000000	99.388048  
2012.000000	99.389295  
2011.000000	99.389982  
2010.000000	99.390082  
2009.000000	99.389724  
2008.000000	99.389142  
2007.000000	99.388641  
2006.000000	99.388454  
2005.000000	99.388623  
2004.000000	99.389057  
2003.000000	99.389655  
2002.000000	99.390361  
2001.000000	99.391081  
2000.000000	99.391646  
1999.000000	99.391894  
1998.000000	99.391822  
1997.000000	99.391626  
1996.000000	99.391595  
1995.000000	99.391886  
1994.000000	99.392401  
1993.000000	99.392895  
1992.000000	99.393232  
1991.000000	99.393549  
1990.000000	99.394042  
1989.000000	99.394706  
1988.000000	99.395362  
1987.000000	99.395893  
1986.000000	99.396349  
1985.000000	99.396846  
1984.000000	99.397434  
1983.000000	99.398076  
1982.000000	99.398710  
1981.000000	99.399304  
1980.000000	99.399851  
1979.000000	99.400370  
1978.000000	99.400897  
1977.000000	99.401470  
1976.000000	99.402095  
1975.000000	99.402750  
1974.000000	99.403400  
1973.000000	99.404025  
1972.000000	99.404625  
1971.000000	99.405216  
1970.000000	99.405835  
1969.000000	99.406506  
1968.000000	99.407212  
1967.000000	99.407918  
1966.000000	99.408634  
1965.000000	99.409420  
1964.000000	99.410313  
1963.000000	99.411259  
1962.000000	99.412174  
1961.000000	99.413045  
1960.000000	99.413954  
1959.000000	99.414972  
1958.000000	99.416052  
1957.000000	99.417116  
1956.000000	99.418115  
1955.000000	99.418911  
1954.000000	99.419288  
1953.000000	99.419219  
1952.000000	99.419081  
1951.000000	99.419402  
1950.000000	99.420388  
1949.000000	99.421730  
1948.000000	99.422863  
1947.000000	99.423473  
1946.000000	99.423768  
1945.000000	99.424286  
1944.000000	99.425380  
1943.000000	99.426837  
1942.000000	99.428016  
1941.000000	99.428487  
1940.000000	99.428467  
1939.000000	99.428583  
1938.000000	99.429330  
1937.000000	99.430655  
1936.000000	99.431936  
1935.000000	99.432530  
1934.000000	99.432512  
1933.000000	99.432777  
1932.000000	99.434087  
1931.000000	99.436006  
1930.000000	99.437179  
1929.000000	99.436924  
1928.000000	99.436134  
1927.000000	99.436235  
1926.000000	99.437411  
1925.000000	99.438468  
1924.000000	99.438436  
1923.000000	99.437840  
1922.000000	99.438119  
1921.000000	99.439915  
1920.000000	99.442266  
1919.000000	99.443274  
1918.000000	99.441630  
1917.000000	99.437862  
1916.000000	99.434060  
1915.000000	99.431872  
1914.000000	99.431280  
1913.000000	99.431237  
1912.000000	99.430907  
1911.000000	99.430302  
1910.000000	99.429817  
1909.000000	99.429489  
1908.000000	99.428918  
1907.000000	99.427731  
1906.000000	99.425913  
1905.000000	99.423881  
1904.000000	99.422415  
1903.000000	99.422239  
1902.000000	99.423440  
1901.000000	99.425215  
1900.000000	99.426330  
1899.000000	99.426035  
1898.000000	99.424505  
1897.000000	99.422543  
1896.000000	99.420984  
1895.000000	99.420264  
1894.000000	99.420348  
1893.000000	99.420891  
1892.000000	99.421435  
1891.000000	99.421621  
1890.000000	99.421518  
1889.000000	99.421670  
1888.000000	99.422474  
1887.000000	99.423635  
1886.000000	99.424458  
1885.000000	99.424689  
1884.000000	99.424848  
1883.000000	99.425570  
1882.000000	99.426784  
1881.000000	99.427794  
1880.000000	99.428109  
1879.000000	99.427944  
1878.000000	99.427888  
1877.000000	99.428274  
1876.000000	99.429037  
1875.000000	99.429977  
1874.000000	99.430908  
1873.000000	99.431646  
1872.000000	99.432064  
1871.000000	99.432261  
1870.000000	99.432611  
1869.000000	99.433472  
1868.000000	99.434793  
1867.000000	99.436145  
1866.000000	99.437180  
1865.000000	99.437886  
1864.000000	99.438417  
1863.000000	99.438930  
1862.000000	99.439541  
1861.000000	99.440317  
1860.000000	99.441246  
1859.000000	99.442263  
1858.000000	99.443361  
1857.000000	99.444604  
1856.000000	99.445970  
1855.000000	99.447258  
1854.000000	99.448298  
1853.000000	99.449110  
1852.000000	99.449753  
1851.000000	99.450132  
1850.000000	99.450184  
1849.000000	99.450216  
1848.000000	99.450750  
1847.000000	99.451968  
1846.000000	99.453554  
1845.000000	99.455098  
1844.000000	99.456584  
1843.000000	99.458186  
1842.000000	99.459705  
1841.000000	99.460658  
1840.000000	99.460787  
1839.000000	99.460299  
1838.000000	99.459746  
1837.000000	99.459693  
1836.000000	99.460367  
1835.000000	99.461515  
1834.000000	99.462706  
1833.000000	99.463795  
1832.000000	99.464959  
1831.000000	99.466301  
1830.000000	99.467510  
1829.000000	99.468071  
1828.000000	99.467811  
1827.000000	99.466893  
1826.000000	99.465437  
1825.000000	99.463780  
1824.000000	99.462867  
1823.000000	99.463550  
1822.000000	99.465608  
1821.000000	99.468012  
1820.000000	99.470061  
1819.000000	99.471795  
1818.000000	99.473322  
1817.000000	99.474351  
1816.000000	99.474691  
1815.000000	99.474657  
1814.000000	99.474550  
1813.000000	99.474182  
1812.000000	99.473579  
1811.000000	99.473775  
1810.000000	99.475706  
1809.000000	99.478686  
1808.000000	99.481184  
1807.000000	99.482811  
1806.000000	99.484392  
1805.000000	99.486380  
1804.000000	99.488144  
1803.000000	99.489072  
1802.000000	99.489663  
1801.000000	99.490888  
1800.000000	99.492857  
1799.000000	99.494700  
1798.000000	99.495507  
1797.000000	99.495057  
1796.000000	99.493817  
1795.000000	99.492648  
1794.000000	99.492625  
1793.000000	99.494497  
1792.000000	99.497707  
1791.000000	99.500191  
1790.000000	99.500249  
1789.000000	99.498780  
1788.000000	99.498843  
1787.000000	99.502937  
1786.000000	99.510344  
1785.000000	99.517462  
1784.000000	99.521975  
1783.000000	99.525209  
1782.000000	99.528836  
1781.000000	99.531063  
1780.000000	99.528636  
1779.000000	99.521945  
1778.000000	99.515032  
1777.000000	99.510647  
1776.000000	99.508353  
1775.000000	99.507557  
1774.000000	99.509980  
1773.000000	99.516842  
1772.000000	99.524899  
1771.000000	99.529967  
1770.000000	99.532665  
1769.000000	99.535933  
1768.000000	99.540182  
1767.000000	99.543716  
1766.000000	99.545977  
1765.000000	99.548368  
1764.000000	99.552649  
1763.000000	99.560226  
1762.000000	99.571333  
1761.000000	99.583467  
1760.000000	99.593035  
1759.000000	99.599314  
1758.000000	99.604810  
1757.000000	99.611876  
1756.000000	99.619678  
1755.000000	99.626362  
1754.000000	99.632410  
1753.000000	99.638973  
1752.000000	99.644690  
1751.000000	99.647300  
1750.000000	99.648849  
1749.000000	99.653562  
1748.000000	99.660334  
1747.000000	99.664360  
1746.000000	99.664653  
1745.000000	99.664449  
1744.000000	99.665420  
1743.000000	99.665431  
1742.000000	99.662656  
1741.000000	99.659087  
1740.000000	99.658215  
1739.000000	99.659952  
1738.000000	99.660581  
1737.000000	99.656968  
1736.000000	99.649052  
1735.000000	99.638727  
1734.000000	99.629781  
1733.000000	99.626362  
1732.000000	99.628075  
1731.000000	99.631120  
1730.000000	99.632654  
1729.000000	99.631909  
1728.000000	99.628628  
1727.000000	99.622751  
1726.000000	99.615175  
1725.000000	99.607834  
1724.000000	99.602467  
1723.000000	99.599177  
1722.000000	99.596541  
1721.000000	99.593067  
1720.000000	99.587913  
1719.000000	99.580769  
1718.000000	99.572380  
1717.000000	99.565549  
1716.000000	99.563445  
1715.000000	99.565660  
1714.000000	99.568008  
1713.000000	99.566894  
1712.000000	99.562023  
1711.000000	99.555084  
1710.000000	99.547653  
1709.000000	99.540612  
1708.000000	99.534433  
1707.000000	99.529433  
1706.000000	99.525672  
1705.000000	99.522399  
1704.000000	99.518522  
1703.000000	99.513680  
1702.000000	99.508699  
1701.000000	99.503972  
1700.000000	99.499066  
1699.000000	99.494804  
1698.000000	99.492486  
1697.000000	99.493326  
1696.000000	99.497340  
1695.000000	99.500907  
1694.000000	99.500477  
1693.000000	99.496609  
1692.000000	99.491709  
1691.000000	99.487932  
1690.000000	99.486031  
1689.000000	99.484962  
1688.000000	99.483541  
1687.000000	99.481978  
1686.000000	99.481371  
1685.000000	99.481412  
1684.000000	99.480090  
1683.000000	99.476905  
1682.000000	99.473544  
1681.000000	99.471238  
1680.000000	99.469962  
1679.000000	99.469642  
1678.000000	99.470297  
1677.000000	99.471653  
1676.000000	99.472518  
1675.000000	99.471685  
1674.000000	99.469801  
1673.000000	99.468502  
1672.000000	99.468173  
1671.000000	99.468073  
1670.000000	99.467606  
1669.000000	99.466947  
1668.000000	99.466330  
1667.000000	99.465549  
1666.000000	99.464492  
1665.000000	99.463382  
1664.000000	99.462536  
1663.000000	99.462118  
1662.000000	99.462093  
1661.000000	99.462291  
1660.000000	99.462488  
1659.000000	99.462544  
1658.000000	99.462436  
1657.000000	99.462237  
1656.000000	99.461951  
1655.000000	99.461501  
1654.000000	99.460560  
1653.000000	99.459028  
1652.000000	99.457811  
1651.000000	99.457666  
1650.000000	99.458374  
1649.000000	99.459249  
1648.000000	99.459968  
1647.000000	99.460343  
1646.000000	99.460296  
1645.000000	99.460160  
1644.000000	99.460450  
1643.000000	99.460970  
1642.000000	99.461083  
1641.000000	99.460476  
1640.000000	99.459387  
1639.000000	99.458132  
1638.000000	99.456810  
1637.000000	99.455618  
1636.000000	99.455098  
1635.000000	99.455376  
1634.000000	99.455841  
1633.000000	99.456154  
1632.000000	99.456299  
1631.000000	99.456301  
1630.000000	99.456387  
1629.000000	99.457037  
1628.000000	99.458405  
1627.000000	99.459581  
1626.000000	99.459296  
1625.000000	99.457390  
1624.000000	99.455120  
1623.000000	99.453863  
1622.000000	99.453478  
1621.000000	99.452868  
1620.000000	99.451734  
1619.000000	99.450867  
1618.000000	99.451276  
1617.000000	99.452887  
1616.000000	99.454388  
1615.000000	99.455122  
1614.000000	99.455754  
1613.000000	99.456918  
1612.000000	99.458637  
1611.000000	99.460497  
1610.000000	99.462259  
1609.000000	99.464247  
1608.000000	99.466611  
1607.000000	99.468588  
1606.000000	99.469216  
1605.000000	99.468478  
1604.000000	99.467466  
1603.000000	99.467523  
1602.000000	99.469110  
1601.000000	99.471509  
1600.000000	99.473512  
1599.000000	99.474494  
1598.000000	99.474770  
1597.000000	99.475149  
1596.000000	99.476219  
1595.000000	99.477975  
1594.000000	99.479974  
1593.000000	99.481755  
1592.000000	99.483112  
1591.000000	99.484049  
1590.000000	99.484690  
1589.000000	99.485242  
1588.000000	99.485891  
1587.000000	99.486664  
1586.000000	99.487482  
1585.000000	99.488304  
1584.000000	99.489169  
1583.000000	99.490170  
1582.000000	99.491394  
1581.000000	99.492823  
1580.000000	99.494325  
1579.000000	99.495760  
1578.000000	99.497103  
1577.000000	99.498413  
1576.000000	99.499705  
1575.000000	99.500926  
1574.000000	99.502033  
1573.000000	99.503003  
1572.000000	99.503869  
1571.000000	99.504816  
1570.000000	99.506079  
1569.000000	99.507705  
1568.000000	99.509405  
1567.000000	99.510910  
1566.000000	99.512240  
1565.000000	99.513535  
1564.000000	99.514859  
1563.000000	99.516196  
1562.000000	99.517527  
1561.000000	99.518949  
1560.000000	99.520269  
1559.000000	99.521380  
1558.000000	99.522821  
1557.000000	99.524600  
1556.000000	99.526285  
1555.000000	99.527513  
1554.000000	99.528596  
1553.000000	99.530095  
1552.000000	99.532057  
1551.000000	99.533858  
1550.000000	99.534977  
1549.000000	99.535541  
1548.000000	99.536137  
1547.000000	99.537258  
1546.000000	99.539191  
1545.000000	99.542081  
1544.000000	99.545805  
1543.000000	99.549878  
1542.000000	99.553592  
1541.000000	99.556151  
1540.000000	99.557059  
1539.000000	99.556624  
1538.000000	99.556212  
1537.000000	99.556867  
1536.000000	99.558067  
1535.000000	99.559114  
1534.000000	99.560126  
1533.000000	99.561944  
1532.000000	99.564730  
1531.000000	99.567623  
1530.000000	99.569794  
1529.000000	99.571165  
1528.000000	99.572560  
1527.000000	99.575142  
1526.000000	99.579094  
1525.000000	99.583119  
1524.000000	99.585747  
1523.000000	99.586707  
1522.000000	99.587107  
1521.000000	99.588473  
1520.000000	99.591229  
1519.000000	99.594952  
1518.000000	99.599464  
1517.000000	99.604676  
1516.000000	99.609729  
1515.000000	99.613597  
1514.000000	99.616643  
1513.000000	99.620057  
1512.000000	99.624340  
1511.000000	99.628866  
1510.000000	99.632770  
1509.000000	99.635983  
1508.000000	99.639116  
1507.000000	99.642673  
1506.000000	99.645672  
1505.000000	99.647659  
1504.000000	99.650158  
1503.000000	99.653699  
1502.000000	99.657906  
1501.000000	99.662451  
1500.000000	99.667252  
1499.000000	99.672543  
1498.000000	99.678596  
1497.000000	99.685051  
1496.000000	99.690704  
1495.000000	99.694743  
1494.000000	99.697487  
1493.000000	99.699820  
1492.000000	99.702683  
1491.000000	99.706830  
1490.000000	99.712314  
1489.000000	99.718135  
1488.000000	99.723405  
1487.000000	99.728434  
1486.000000	99.733741  
1485.000000	99.739115  
1484.000000	99.743715  
1483.000000	99.746814  
1482.000000	99.748503  
1481.000000	99.749928  
1480.000000	99.752748  
1479.000000	99.758031  
1478.000000	99.765466  
1477.000000	99.773095  
1476.000000	99.778635  
1475.000000	99.781747  
1474.000000	99.784078  
1473.000000	99.786776  
1472.000000	99.789368  
1471.000000	99.791986  
1470.000000	99.796148  
1469.000000	99.802287  
1468.000000	99.808795  
1467.000000	99.813945  
1466.000000	99.818230  
1465.000000	99.823984  
1464.000000	99.831484  
1463.000000	99.838054  
1462.000000	99.842074  
1461.000000	99.844712  
1460.000000	99.848554  
1459.000000	99.856113  
1458.000000	99.867912  
1457.000000	99.878376  
1456.000000	99.880387  
1455.000000	99.876299  
1454.000000	99.873217  
1453.000000	99.873641  
1452.000000	99.876610  
1451.000000	99.880016  
1450.000000	99.882551  
1449.000000	99.883708  
1448.000000	99.882950  
1447.000000	99.880375  
1446.000000	99.877888  
1445.000000	99.877536  
1444.000000	99.878836  
1443.000000	99.878958  
1442.000000	99.875853  
1441.000000	99.870829  
1440.000000	99.867062  
1439.000000	99.866303  
1438.000000	99.867858  
1437.000000	99.869820  
1436.000000	99.871451  
1435.000000	99.873784  
1434.000000	99.877282  
1433.000000	99.881091  
1432.000000	99.884487  
1431.000000	99.887218  
1430.000000	99.888894  
1429.000000	99.888717  
1428.000000	99.886587  
1427.000000	99.884047  
1426.000000	99.883179  
1425.000000	99.884675  
1424.000000	99.887188  
1423.000000	99.889226  
1422.000000	99.891263  
1421.000000	99.894754  
1420.000000	99.898910  
1419.000000	99.900382  
1418.000000	99.898722  
1417.000000	99.897946  
1416.000000	99.900889  
1415.000000	99.906278  
1414.000000	99.910715  
1413.000000	99.911927  
1412.000000	99.910673  
1411.000000	99.909757  
1410.000000	99.911459  
1409.000000	99.915627  
1408.000000	99.920385  
1407.000000	99.924054  
1406.000000	99.926459  
1405.000000	99.928581  
1404.000000	99.930844  
1403.000000	99.932767  
1402.000000	99.933918  
1401.000000	99.934008  
1400.000000	99.932857  
1399.000000	99.931423  
1398.000000	99.931793  
1397.000000	99.934618  
1396.000000	99.937518  
1395.000000	99.937016  
1394.000000	99.933002  
1393.000000	99.929624  
1392.000000	99.930357  
1391.000000	99.934989  
1390.000000	99.941298  
1389.000000	99.947833  
1388.000000	99.955136  
1387.000000	99.964466  
1386.000000	99.975481  
1385.000000	99.986024  
1384.000000	99.994436  
1383.000000	100.001430 
1382.000000	100.009333 
1381.000000	100.018825 
1380.000000	100.026660 
1379.000000	100.028158 
1378.000000	100.022513 
1377.000000	100.013949 
1376.000000	100.006834 
1375.000000	100.001288 
1374.000000	99.994424  
1373.000000	99.984297  
1372.000000	99.971311  
1371.000000	99.956733  
1370.000000	99.942006  
1369.000000	99.929222  
1368.000000	99.919862  
1367.000000	99.913146  
1366.000000	99.906675  
1365.000000	99.898533  
1364.000000	99.888919  
1363.000000	99.880769  
1362.000000	99.877793  
1361.000000	99.880576  
1360.000000	99.885667  
1359.000000	99.888806  
1358.000000	99.888385  
1357.000000	99.885854  
1356.000000	99.883146  
1355.000000	99.880608  
1354.000000	99.877813  
1353.000000	99.875120  
1352.000000	99.873459  
1351.000000	99.873119  
1350.000000	99.873857  
1349.000000	99.875677  
1348.000000	99.878248  
1347.000000	99.880619  
1346.000000	99.882551  
1345.000000	99.885025  
1344.000000	99.887987  
1343.000000	99.888715  
1342.000000	99.884443  
1341.000000	99.876386  
1340.000000	99.869561  
1339.000000	99.867510  
1338.000000	99.868656  
1337.000000	99.869183  
1336.000000	99.867474  
1335.000000	99.864638  
1334.000000	99.862435  
1333.000000	99.861694  
1332.000000	99.862003  
1331.000000	99.862235  
1330.000000	99.861500  
1329.000000	99.859882  
1328.000000	99.858253  
1327.000000	99.857346  
1326.000000	99.857094  
1325.000000	99.856816  
1324.000000	99.855909  
1323.000000	99.854327  
1322.000000	99.852480  
1321.000000	99.850834  
1320.000000	99.849557  
1319.000000	99.848545  
1318.000000	99.847647  
1317.000000	99.846778  
1316.000000	99.845896  
1315.000000	99.844970  
1314.000000	99.843994  
1313.000000	99.842990  
1312.000000	99.841992  
1311.000000	99.841009  
1310.000000	99.840023  
1309.000000	99.839003  
1308.000000	99.837947  
1307.000000	99.836893  
1306.000000	99.835898  
1305.000000	99.834986  
1304.000000	99.834105  
1303.000000	99.833154  
1302.000000	99.832083  
1301.000000	99.830953  
1300.000000	99.829892  
1299.000000	99.828933  
1298.000000	99.827919  
1297.000000	99.826679  
1296.000000	99.825340  
1295.000000	99.824266  
1294.000000	99.823597  
1293.000000	99.823036  
1292.000000	99.822193  
1291.000000	99.821072  
1290.000000	99.819991  
1289.000000	99.819133  
1288.000000	99.818338  
1287.000000	99.817355  
1286.000000	99.816153  
1285.000000	99.814974  
1284.000000	99.814177  
1283.000000	99.813966  
1282.000000	99.814208  
1281.000000	99.814424  
1280.000000	99.814112  
1279.000000	99.813159  
1278.000000	99.811879  
1277.000000	99.810681  
1276.000000	99.809715  
1275.000000	99.808896  
1274.000000	99.808131  
1273.000000	99.807381  
1272.000000	99.806509  
1271.000000	99.805103  
1270.000000	99.802707  
1269.000000	99.799618  
1268.000000	99.797388  
1267.000000	99.797928  
1266.000000	99.801520  
1265.000000	99.805774  
1264.000000	99.807395  
1263.000000	99.804928  
1262.000000	99.799465  
1261.000000	99.793242  
1260.000000	99.788095  
1259.000000	99.784935  
1258.000000	99.783741  
1257.000000	99.783807  
1256.000000	99.784521  
1255.000000	99.785742  
1254.000000	99.786703  
1253.000000	99.785073  
1252.000000	99.778902  
1251.000000	99.770075  
1250.000000	99.764058  
1249.000000	99.764463  
1248.000000	99.768693  
1247.000000	99.770539  
1246.000000	99.766974  
1245.000000	99.760808  
1244.000000	99.756579  
1243.000000	99.755528  
1242.000000	99.755418  
1241.000000	99.753955  
1240.000000	99.751029  
1239.000000	99.748093  
1238.000000	99.746602  
1237.000000	99.747033  
1236.000000	99.748749  
1235.000000	99.750996  
1234.000000	99.754497  
1233.000000	99.761033  
1232.000000	99.769863  
1231.000000	99.775487  
1230.000000	99.771966  
1229.000000	99.760037  
1228.000000	99.747407  
1227.000000	99.739867  
1226.000000	99.733907  
1225.000000	99.721430  
1224.000000	99.700502  
1223.000000	99.678065  
1222.000000	99.661840  
1221.000000	99.652876  
1220.000000	99.647603  
1219.000000	99.643676  
1218.000000	99.640781  
1217.000000	99.637446  
1216.000000	99.630469  
1215.000000	99.617841  
1214.000000	99.600426  
1213.000000	99.580524  
1212.000000	99.559904  
1211.000000	99.539215  
1210.000000	99.518247  
1209.000000	99.496762  
1208.000000	99.475812  
1207.000000	99.457807  
1206.000000	99.444307  
1205.000000	99.433908  
1204.000000	99.422941  
1203.000000	99.407960  
1202.000000	99.387538  
1201.000000	99.362891  
1200.000000	99.337590  
1199.000000	99.315362  
1198.000000	99.296842  
1197.000000	99.279171  
1196.000000	99.259613  
1195.000000	99.238515  
1194.000000	99.217978  
1193.000000	99.199205  
1192.000000	99.182364  
1191.000000	99.167263  
1190.000000	99.152444  
1189.000000	99.135415  
1188.000000	99.116100  
1187.000000	99.098462  
1186.000000	99.085735  
1185.000000	99.075207  
1184.000000	99.061105  
1183.000000	99.042505  
1182.000000	99.024996  
1181.000000	99.013650  
1180.000000	99.007027  
1179.000000	98.999135  
1178.000000	98.985210  
1177.000000	98.964350  
1176.000000	98.938450  
1175.000000	98.910409  
1174.000000	98.882518  
1173.000000	98.855459  
1172.000000	98.829280  
1171.000000	98.805235  
1170.000000	98.785292  
1169.000000	98.769592  
1168.000000	98.755822  
1167.000000	98.741544  
1166.000000	98.726156  
1165.000000	98.710786  
1164.000000	98.697945  
1163.000000	98.691208  
1162.000000	98.692898  
1161.000000	98.701118  
1160.000000	98.710638  
1159.000000	98.717634  
1158.000000	98.722054  
1157.000000	98.724346  
1156.000000	98.722098  
1155.000000	98.712328  
1154.000000	98.695997  
1153.000000	98.677704  
1152.000000	98.660732  
1151.000000	98.644199  
1150.000000	98.625620  
1149.000000	98.605067  
1148.000000	98.585993  
1147.000000	98.572054  
1146.000000	98.563080  
1145.000000	98.554360  
1144.000000	98.540739  
1143.000000	98.521961  
1142.000000	98.503350  
1141.000000	98.490481  
1140.000000	98.483573  
1139.000000	98.477491  
1138.000000	98.466465  
1137.000000	98.448123  
1136.000000	98.423956  
1135.000000	98.397738  
1134.000000	98.373599  
1133.000000	98.353874  
1132.000000	98.337570  
1131.000000	98.321096  
1130.000000	98.301328  
1129.000000	98.278565  
1128.000000	98.256364  
1127.000000	98.238203  
1126.000000	98.224075  
1125.000000	98.210405  
1124.000000	98.193278  
1123.000000	98.171761  
1122.000000	98.148653  
1121.000000	98.128823  
1120.000000	98.116487  
1119.000000	98.112266  
1118.000000	98.111543  
1117.000000	98.106778  
1116.000000	98.093351  
1115.000000	98.073579  
1114.000000	98.054497  
1113.000000	98.042053  
1112.000000	98.038113  
1111.000000	98.041793  
1110.000000	98.051314  
1109.000000	98.064212  
1108.000000	98.077530  
1107.000000	98.089220  
1106.000000	98.099229  
1105.000000	98.109225  
1104.000000	98.122143  
1103.000000	98.141826  
1102.000000	98.171278  
1101.000000	98.210012  
1100.000000	98.254126  
1099.000000	98.299793  
1098.000000	98.344991  
1097.000000	98.387235  
1096.000000	98.421693  
1095.000000	98.444349  
1094.000000	98.455661  
1093.000000	98.458116  
1092.000000	98.451498  
1091.000000	98.434633  
1090.000000	98.411051  
1089.000000	98.387720  
1088.000000	98.367075  
1087.000000	98.345249  
1086.000000	98.320018  
1085.000000	98.295393  
1084.000000	98.275106  
1083.000000	98.256046  
1082.000000	98.232839  
1081.000000	98.205855  
1080.000000	98.179687  
1079.000000	98.155724  
1078.000000	98.131546  
1077.000000	98.106601  
1076.000000	98.083062  
1075.000000	98.060920  
1074.000000	98.037314  
1073.000000	98.011468  
1072.000000	97.985674  
1071.000000	97.960674  
1070.000000	97.935024  
1069.000000	97.910463  
1068.000000	97.892397  
1067.000000	97.881715  
1066.000000	97.870588  
1065.000000	97.851332  
1064.000000	97.827260  
1063.000000	97.810757  
1062.000000	97.812509  
1061.000000	97.836038  
1060.000000	97.880398  
1059.000000	97.942804  
1058.000000	98.017911  
1057.000000	98.097630  
1056.000000	98.172872  
1055.000000	98.235356  
1054.000000	98.279447  
1053.000000	98.303180  
1052.000000	98.305375  
1051.000000	98.281229  
1050.000000	98.224647  
1049.000000	98.136982  
1048.000000	98.029322  
1047.000000	97.912844  
1046.000000	97.790177  
1045.000000	97.660164  
1044.000000	97.527896  
1043.000000	97.404067  
1042.000000	97.294129  
1041.000000	97.193041  
1040.000000	97.092559  
1039.000000	96.990453  
1038.000000	96.891422  
1037.000000	96.802309  
1036.000000	96.727789  
1035.000000	96.667408  
1034.000000	96.615142  
1033.000000	96.565123  
1032.000000	96.519655  
1031.000000	96.488520  
1030.000000	96.478020  
1029.000000	96.482423  
1028.000000	96.487486  
1027.000000	96.481108  
1026.000000	96.460606  
1025.000000	96.432495  
1024.000000	96.407290  
1023.000000	96.392895  
1022.000000	96.389714  
1021.000000	96.390736  
1020.000000	96.386775  
1019.000000	96.372776  
1018.000000	96.351242  
1017.000000	96.331069  
1016.000000	96.321855  
1015.000000	96.326867  
1014.000000	96.340548  
1013.000000	96.353264  
1012.000000	96.358149  
1011.000000	96.353611  
1010.000000	96.342251  
1009.000000	96.329980  
1008.000000	96.324421  
1007.000000	96.330210  
1006.000000	96.344795  
1005.000000	96.360548  
1004.000000	96.371645  
1003.000000	96.378175  
1002.000000	96.384160  
1001.000000	96.392925  
1000.000000	96.404474  
999.000000	 96.416649  
998.000000	 96.428709  
997.000000	 96.442922  
996.000000	 96.461146  
995.000000	 96.480758  
994.000000	 96.496863  
993.000000	 96.508687  
992.000000	 96.520520  
991.000000	 96.535577  
990.000000	 96.552600  
989.000000	 96.569958  
988.000000	 96.589436  
987.000000	 96.613773  
986.000000	 96.643566  
985.000000	 96.678495  
984.000000	 96.718136  
983.000000	 96.759936  
982.000000	 96.800740  
981.000000	 96.842329  
980.000000	 96.890197  
979.000000	 96.943599  
978.000000	 96.992274  
977.000000	 97.028240  
976.000000	 97.056691  
975.000000	 97.089646  
974.000000	 97.131966  
973.000000	 97.178859  
972.000000	 97.224203  
971.000000	 97.265456  
970.000000	 97.302421  
969.000000	 97.337398  
968.000000	 97.375699  
967.000000	 97.420493  
966.000000	 97.467593  
965.000000	 97.510397  
964.000000	 97.549428  
963.000000	 97.591583  
962.000000	 97.639843  
961.000000	 97.689143  
960.000000	 97.733666  
959.000000	 97.773342  
958.000000	 97.811095  
957.000000	 97.847343  
956.000000	 97.880002  
955.000000	 97.908014  
954.000000	 97.932383  
953.000000	 97.954254  
952.000000	 97.973641  
951.000000	 97.990775  
950.000000	 98.008288  
949.000000	 98.030429  
948.000000	 98.058225  
947.000000	 98.086392  
946.000000	 98.108379  
945.000000	 98.124315  
944.000000	 98.139813  
943.000000	 98.156353  
942.000000	 98.168640  
941.000000	 98.174362  
940.000000	 98.180244  
939.000000	 98.192916  
938.000000	 98.208474  
937.000000	 98.218367  
936.000000	 98.222557  
935.000000	 98.229051  
934.000000	 98.241685  
933.000000	 98.256297  
932.000000	 98.269321  
931.000000	 98.282218  
930.000000	 98.295478  
929.000000	 98.305531  
928.000000	 98.311187  
927.000000	 98.317475  
926.000000	 98.328882  
925.000000	 98.343147  
924.000000	 98.355951  
923.000000	 98.368182  
922.000000	 98.383645  
921.000000	 98.401518  
920.000000	 98.416090  
919.000000	 98.424344  
918.000000	 98.430485  
917.000000	 98.441505  
916.000000	 98.459912  
915.000000	 98.482076  
914.000000	 98.502814  
913.000000	 98.520551  
912.000000	 98.537160  
911.000000	 98.553178  
910.000000	 98.566068  
909.000000	 98.574923  
908.000000	 98.584896  
907.000000	 98.604222  
906.000000	 98.637090  
905.000000	 98.681308  
904.000000	 98.732046  
903.000000	 98.785154  
902.000000	 98.837222  
901.000000	 98.885731  
900.000000	 98.930423  
899.000000	 98.973155  
898.000000	 99.015835  
897.000000	 99.059421  
896.000000	 99.104607  
895.000000	 99.151817  
894.000000	 99.200031  
893.000000	 99.246594  
892.000000	 99.288771  
891.000000	 99.325924  
890.000000	 99.361473  
889.000000	 99.402733  
888.000000	 99.456163  
887.000000	 99.520549  
886.000000	 99.585965  
885.000000	 99.641462  
884.000000	 99.683139  
883.000000	 99.713880  
882.000000	 99.737555  
881.000000	 99.755607  
880.000000	 99.766938  
879.000000	 99.767480  
878.000000	 99.751551  
877.000000	 99.719081  
876.000000	 99.682077  
875.000000	 99.657345  
874.000000	 99.648440  
873.000000	 99.639717  
872.000000	 99.614538  
871.000000	 99.577433  
870.000000	 99.551854  
869.000000	 99.554644  
868.000000	 99.578886  
867.000000	 99.604157  
866.000000	 99.619273  
865.000000	 99.630265  
864.000000	 99.647557  
863.000000	 99.671798  
862.000000	 99.694399  
861.000000	 99.707707  
860.000000	 99.711000  
859.000000	 99.708809  
858.000000	 99.707007  
857.000000	 99.709682  
856.000000	 99.717330  
855.000000	 99.728330  
854.000000	 99.742639  
853.000000	 99.761015  
852.000000	 99.778630  
851.000000	 99.784709  
850.000000	 99.775025  
849.000000	 99.761905  
848.000000	 99.763572  
847.000000	 99.782948  
846.000000	 99.804620  
845.000000	 99.814271  
844.000000	 99.812899  
843.000000	 99.808807  
842.000000	 99.804796  
841.000000	 99.800103  
840.000000	 99.797704  
839.000000	 99.799890  
838.000000	 99.800232  
837.000000	 99.790369  
836.000000	 99.774460  
835.000000	 99.767327  
834.000000	 99.775263  
833.000000	 99.786126  
832.000000	 99.782829  
831.000000	 99.761645  
830.000000	 99.733826  
829.000000	 99.713524  
828.000000	 99.708182  
827.000000	 99.717590  
826.000000	 99.736184  
825.000000	 99.754883  
824.000000	 99.763370  
823.000000	 99.754070  
822.000000	 99.727517  
821.000000	 99.694494  
820.000000	 99.669062  
819.000000	 99.656022  
818.000000	 99.647086  
817.000000	 99.631988  
816.000000	 99.610365  
815.000000	 99.588970  
814.000000	 99.570761  
813.000000	 99.553155  
812.000000	 99.534397  
811.000000	 99.512220  
810.000000	 99.476027  
809.000000	 99.411427  
808.000000	 99.317841  
807.000000	 99.214234  
806.000000	 99.120452  
805.000000	 99.038001  
804.000000	 98.955785  
803.000000	 98.869081  
802.000000	 98.784869  
801.000000	 98.711702  
800.000000	 98.653021  
799.000000	 98.609906  
798.000000	 98.583326  
797.000000	 98.572674  
796.000000	 98.575816  
795.000000	 98.590034  
794.000000	 98.610179  
793.000000	 98.628754  
792.000000	 98.642886  
791.000000	 98.659324  
790.000000	 98.686354  
789.000000	 98.720262  
788.000000	 98.745047  
787.000000	 98.747857  
786.000000	 98.731003  
785.000000	 98.706194  
784.000000	 98.680245  
783.000000	 98.650383  
782.000000	 98.612592  
781.000000	 98.570789  
780.000000	 98.536295  
779.000000	 98.519630  
778.000000	 98.523940  
777.000000	 98.545454  
776.000000	 98.578200  
775.000000	 98.617572  
774.000000	 98.660956  
773.000000	 98.706963  
772.000000	 98.754196  
771.000000	 98.799606  
770.000000	 98.838511  
769.000000	 98.867998  
768.000000	 98.890540  
767.000000	 98.912802  
766.000000	 98.939938  
765.000000	 98.971505  
764.000000	 99.003039  
763.000000	 99.030368  
762.000000	 99.051661  
761.000000	 99.066300  
760.000000	 99.073618  
759.000000	 99.074157  
758.000000	 99.071977  
757.000000	 99.073835  
756.000000	 99.084294  
755.000000	 99.101618  
754.000000	 99.120033  
753.000000	 99.136789  
752.000000	 99.155573  
751.000000	 99.181919  
750.000000	 99.216476  
749.000000	 99.253822  
748.000000	 99.286818  
747.000000	 99.310890  
746.000000	 99.325518  
745.000000	 99.334181  
744.000000	 99.343041  
743.000000	 99.357859  
742.000000	 99.380993  
741.000000	 99.410929  
740.000000	 99.443707  
739.000000	 99.474484  
738.000000	 99.499044  
737.000000	 99.515197  
736.000000	 99.523331  
735.000000	 99.524974  
734.000000	 99.521596  
733.000000	 99.516792  
732.000000	 99.517657  
731.000000	 99.530758  
730.000000	 99.556682  
729.000000	 99.589821  
728.000000	 99.622133  
727.000000	 99.646686  
726.000000	 99.660119  
725.000000	 99.663148  
724.000000	 99.659078  
723.000000	 99.651939  
722.000000	 99.646219  
721.000000	 99.646820  
720.000000	 99.656199  
719.000000	 99.671250  
718.000000	 99.685865  
717.000000	 99.697006  
716.000000	 99.705905  
715.000000	 99.713106  
714.000000	 99.715965  
713.000000	 99.712602  
712.000000	 99.704549  
711.000000	 99.693404  
710.000000	 99.678856  
709.000000	 99.663491  
708.000000	 99.655630  
707.000000	 99.662099  
706.000000	 99.679641  
705.000000	 99.696049  
704.000000	 99.699071  
703.000000	 99.683506  
702.000000	 99.651634  
701.000000	 99.611225  
700.000000	 99.572156  
699.000000	 99.537851  
698.000000	 99.500576  
697.000000	 99.450856  
696.000000	 99.394672  
695.000000	 99.357342  
694.000000	 99.362906  
693.000000	 99.412614  
692.000000	 99.483976  
691.000000	 99.547755  
690.000000	 99.587959  
689.000000	 99.606062  
688.000000	 99.612156  
687.000000	 99.616083  
686.000000	 99.622960  
685.000000	 99.634255  
684.000000	 99.651069  
683.000000	 99.674719  
682.000000	 99.705974  
681.000000	 99.744028  
680.000000	 99.784362  
679.000000	 99.816202  
678.000000	 99.827584  
677.000000	 99.819056  
676.000000	 99.805878  
675.000000	 99.805370  
674.000000	 99.819432  
673.000000	 99.833373  
672.000000	 99.831252  
671.000000	 99.809313  
670.000000	 99.772287  
669.000000	 99.734017  
668.000000	 99.727066  
667.000000	 99.758311  
666.000000	 99.792864  
665.000000	 99.827838  
664.000000	 99.873015  
663.000000	 99.924667  
662.000000	 99.968225  
661.000000	 99.996556  
660.000000	 100.014104 
659.000000	 100.027196 
658.000000	 100.038063 
657.000000	 100.046792 
656.000000	 100.047573 
655.000000	 100.033772 
654.000000	 100.011541 
653.000000	 99.998195  
652.000000	 99.999968  
651.000000	 100.003981 
650.000000	 99.998043  

