PE IR                   SPECTRUM    ASCII       PEDS        1.60        
  -1
~SP.SP
22/12/06
14:59:00.00
23/01/09
14:47:49.00
Administrator

650.000000
4









FRONTIER FT-IR,CPU32 MAIN 00.09.9951 07-SEPTEMBER-2011 11:49:41
MIR TGS
MIR
OPTKBR
90694
0.200000

4.000000
STRONG
RATIO
SPECTRUM
MAGNITUDE
MIRACLE ATR
DOUBLE

COMBINED


0


#HDR
-1
-1
#GR
CM-1
%T
0.00002384185791015625
0.0
4000.000000
-1.000000
3351
8
99.507801
77.860969
#DATA
4000.000000	99.488673 
3999.000000	99.486523 
3998.000000	99.487899 
3997.000000	99.491598 
3996.000000	99.495286 
3995.000000	99.497131 
3994.000000	99.496557 
3993.000000	99.494417 
3992.000000	99.492486 
3991.000000	99.491670 
3990.000000	99.491177 
3989.000000	99.489630 
3988.000000	99.486749 
3987.000000	99.483916 
3986.000000	99.483106 
3985.000000	99.485360 
3984.000000	99.490019 
3983.000000	99.495039 
3982.000000	99.498170 
3981.000000	99.498267 
3980.000000	99.495895 
3979.000000	99.492619 
3978.000000	99.489616 
3977.000000	99.486899 
3976.000000	99.483849 
3975.000000	99.480467 
3974.000000	99.477862 
3973.000000	99.477255 
3972.000000	99.478642 
3971.000000	99.480730 
3970.000000	99.482278 
3969.000000	99.483331 
3968.000000	99.484852 
3967.000000	99.487339 
3966.000000	99.490203 
3965.000000	99.492545 
3964.000000	99.494104 
3963.000000	99.495071 
3962.000000	99.495354 
3961.000000	99.494554 
3960.000000	99.492640 
3959.000000	99.490158 
3958.000000	99.487623 
3957.000000	99.485107 
3956.000000	99.482755 
3955.000000	99.481391 
3954.000000	99.481986 
3953.000000	99.484546 
3952.000000	99.487742 
3951.000000	99.489813 
3950.000000	99.490094 
3949.000000	99.489347 
3948.000000	99.488853 
3947.000000	99.489150 
3946.000000	99.489779 
3945.000000	99.490077 
3944.000000	99.489985 
3943.000000	99.490072 
3942.000000	99.490857 
3941.000000	99.492192 
3940.000000	99.493332 
3939.000000	99.493564 
3938.000000	99.492755 
3937.000000	99.491439 
3936.000000	99.490468 
3935.000000	99.490373 
3934.000000	99.490989 
3933.000000	99.491613 
3932.000000	99.491611 
3931.000000	99.490950 
3930.000000	99.490108 
3929.000000	99.489557 
3928.000000	99.489380 
3927.000000	99.489329 
3926.000000	99.489179 
3925.000000	99.489055 
3924.000000	99.489308 
3923.000000	99.490095 
3922.000000	99.491156 
3921.000000	99.491983 
3920.000000	99.492238 
3919.000000	99.491930 
3918.000000	99.491289 
3917.000000	99.490527 
3916.000000	99.489735 
3915.000000	99.488988 
3914.000000	99.488431 
3913.000000	99.488184 
3912.000000	99.488258 
3911.000000	99.488546 
3910.000000	99.488906 
3909.000000	99.489210 
3908.000000	99.489314 
3907.000000	99.489053 
3906.000000	99.488332 
3905.000000	99.487232 
3904.000000	99.486077 
3903.000000	99.485189 
3902.000000	99.484612 
3901.000000	99.484196 
3900.000000	99.483870 
3899.000000	99.483717 
3898.000000	99.483768 
3897.000000	99.483868 
3896.000000	99.483796 
3895.000000	99.483443 
3894.000000	99.482900 
3893.000000	99.482412 
3892.000000	99.482191 
3891.000000	99.482180 
3890.000000	99.482108 
3889.000000	99.481810 
3888.000000	99.481351 
3887.000000	99.480865 
3886.000000	99.480400 
3885.000000	99.479928 
3884.000000	99.479463 
3883.000000	99.479092 
3882.000000	99.478880 
3881.000000	99.478774 
3880.000000	99.478598 
3879.000000	99.478211 
3878.000000	99.477614 
3877.000000	99.476938 
3876.000000	99.476314 
3875.000000	99.475748 
3874.000000	99.475173 
3873.000000	99.474601 
3872.000000	99.474141 
3871.000000	99.473873 
3870.000000	99.473791 
3869.000000	99.473879 
3868.000000	99.474160 
3867.000000	99.474576 
3866.000000	99.474790 
3865.000000	99.474385 
3864.000000	99.473328 
3863.000000	99.472214 
3862.000000	99.471680 
3861.000000	99.471694 
3860.000000	99.471695 
3859.000000	99.471223 
3858.000000	99.470403 
3857.000000	99.469808 
3856.000000	99.469849 
3855.000000	99.470375 
3854.000000	99.470877 
3853.000000	99.471106 
3852.000000	99.470910 
3851.000000	99.470156 
3850.000000	99.469132 
3849.000000	99.468234 
3848.000000	99.467567 
3847.000000	99.467026 
3846.000000	99.466378 
3845.000000	99.465292 
3844.000000	99.463643 
3843.000000	99.461884 
3842.000000	99.460783 
3841.000000	99.460580 
3840.000000	99.460772 
3839.000000	99.460708 
3838.000000	99.460337 
3837.000000	99.459990 
3836.000000	99.459658 
3835.000000	99.459156 
3834.000000	99.458710 
3833.000000	99.458938 
3832.000000	99.460163 
3831.000000	99.461930 
3830.000000	99.463358 
3829.000000	99.463973 
3828.000000	99.463947 
3827.000000	99.463701 
3826.000000	99.463445 
3825.000000	99.463117 
3824.000000	99.462718 
3823.000000	99.462436 
3822.000000	99.462419 
3821.000000	99.462472 
3820.000000	99.462122 
3819.000000	99.461258 
3818.000000	99.460575 
3817.000000	99.460952 
3816.000000	99.462530 
3815.000000	99.464514 
3814.000000	99.465917 
3813.000000	99.466566 
3812.000000	99.466823 
3811.000000	99.466979 
3810.000000	99.467062 
3809.000000	99.467068 
3808.000000	99.467201 
3807.000000	99.467747 
3806.000000	99.468645 
3805.000000	99.469457 
3804.000000	99.469851 
3803.000000	99.469911 
3802.000000	99.470102 
3801.000000	99.470730 
3800.000000	99.471413 
3799.000000	99.471620 
3798.000000	99.471530 
3797.000000	99.471924 
3796.000000	99.473429 
3795.000000	99.475907 
3794.000000	99.478364 
3793.000000	99.479762 
3792.000000	99.479816 
3791.000000	99.479132 
3790.000000	99.478575 
3789.000000	99.478335 
3788.000000	99.477888 
3787.000000	99.476895 
3786.000000	99.475830 
3785.000000	99.475449 
3784.000000	99.475773 
3783.000000	99.476005 
3782.000000	99.475510 
3781.000000	99.474530 
3780.000000	99.473875 
3779.000000	99.474079 
3778.000000	99.474942 
3777.000000	99.475903 
3776.000000	99.476659 
3775.000000	99.477152 
3774.000000	99.477195 
3773.000000	99.476514 
3772.000000	99.474960 
3771.000000	99.472702 
3770.000000	99.470495 
3769.000000	99.469420 
3768.000000	99.470199 
3767.000000	99.472707 
3766.000000	99.475847 
3765.000000	99.477965 
3764.000000	99.477745 
3763.000000	99.474857 
3762.000000	99.469845 
3761.000000	99.463760 
3760.000000	99.458119 
3759.000000	99.454193 
3758.000000	99.451874 
3757.000000	99.449906 
3756.000000	99.447709 
3755.000000	99.445965 
3754.000000	99.444816 
3753.000000	99.442895 
3752.000000	99.439620 
3751.000000	99.437860 
3750.000000	99.440886 
3749.000000	99.447182 
3748.000000	99.453184 
3747.000000	99.457554 
3746.000000	99.459713 
3745.000000	99.458610 
3744.000000	99.453549 
3743.000000	99.444931 
3742.000000	99.435645 
3741.000000	99.429412 
3740.000000	99.427103 
3739.000000	99.426542 
3738.000000	99.425156 
3737.000000	99.422190 
3736.000000	99.419221 
3735.000000	99.419384 
3734.000000	99.424403 
3733.000000	99.432540 
3732.000000	99.439771 
3731.000000	99.442667 
3730.000000	99.440662 
3729.000000	99.435593 
3728.000000	99.429463 
3727.000000	99.423177 
3726.000000	99.417288 
3725.000000	99.413393 
3724.000000	99.413530 
3723.000000	99.417999 
3722.000000	99.424061 
3721.000000	99.427638 
3720.000000	99.426400 
3719.000000	99.420143 
3718.000000	99.409473 
3717.000000	99.395195 
3716.000000	99.379170 
3715.000000	99.364181 
3714.000000	99.351884 
3713.000000	99.341960 
3712.000000	99.333769 
3711.000000	99.328047 
3710.000000	99.325390 
3709.000000	99.324658 
3708.000000	99.324316 
3707.000000	99.323828 
3706.000000	99.323703 
3705.000000	99.324774 
3704.000000	99.326865 
3703.000000	99.327680 
3702.000000	99.323587 
3701.000000	99.312823 
3700.000000	99.298037 
3699.000000	99.284860 
3698.000000	99.277266 
3697.000000	99.274062 
3696.000000	99.270207 
3695.000000	99.261779 
3694.000000	99.249594 
3693.000000	99.238287 
3692.000000	99.232874 
3691.000000	99.236173 
3690.000000	99.247061 
3689.000000	99.259962 
3688.000000	99.267750 
3687.000000	99.267750 
3686.000000	99.263617 
3685.000000	99.259534 
3684.000000	99.254598 
3683.000000	99.244056 
3682.000000	99.224688 
3681.000000	99.198140 
3680.000000	99.169636 
3679.000000	99.144578 
3678.000000	99.126041 
3677.000000	99.114897 
3676.000000	99.110716 
3675.000000	99.110503 
3674.000000	99.108170 
3673.000000	99.100022 
3672.000000	99.087392 
3671.000000	99.073130 
3670.000000	99.059647 
3669.000000	99.048513 
3668.000000	99.038894 
3667.000000	99.029094 
3666.000000	99.018380 
3665.000000	99.005678 
3664.000000	98.989407 
3663.000000	98.969336 
3662.000000	98.947845 
3661.000000	98.928594 
3660.000000	98.913804 
3659.000000	98.903052 
3658.000000	98.893439 
3657.000000	98.880836 
3656.000000	98.861589 
3655.000000	98.834767 
3654.000000	98.804011 
3653.000000	98.775646 
3652.000000	98.753284 
3651.000000	98.734979 
3650.000000	98.716723 
3649.000000	98.698374 
3648.000000	98.682808 
3647.000000	98.670113 
3646.000000	98.657957 
3645.000000	98.645735 
3644.000000	98.635521 
3643.000000	98.629169 
3642.000000	98.625331 
3641.000000	98.619345 
3640.000000	98.606914 
3639.000000	98.588149 
3638.000000	98.567307 
3637.000000	98.548940 
3636.000000	98.534360 
3635.000000	98.521547 
3634.000000	98.507784 
3633.000000	98.492313 
3632.000000	98.476363 
3631.000000	98.460689 
3630.000000	98.445402 
3629.000000	98.432387 
3628.000000	98.423231 
3627.000000	98.416045 
3626.000000	98.410900 
3625.000000	98.410919 
3624.000000	98.416723 
3623.000000	98.425865 
3622.000000	98.435884 
3621.000000	98.445759 
3620.000000	98.455174 
3619.000000	98.463494 
3618.000000	98.469182 
3617.000000	98.471035 
3616.000000	98.470325 
3615.000000	98.470467 
3614.000000	98.474811 
3613.000000	98.485418 
3612.000000	98.502681 
3611.000000	98.525380 
3610.000000	98.550891 
3609.000000	98.575578 
3608.000000	98.595690 
3607.000000	98.609435 
3606.000000	98.618439 
3605.000000	98.626035 
3604.000000	98.633908 
3603.000000	98.640409 
3602.000000	98.642947 
3601.000000	98.642372 
3600.000000	98.643608 
3599.000000	98.651217 
3598.000000	98.665081 
3597.000000	98.681422 
3596.000000	98.696705 
3595.000000	98.709959 
3594.000000	98.721030 
3593.000000	98.728140 
3592.000000	98.729174 
3591.000000	98.724823 
3590.000000	98.719408 
3589.000000	98.718499 
3588.000000	98.724495 
3587.000000	98.733418 
3586.000000	98.738216 
3585.000000	98.736314 
3584.000000	98.732046 
3583.000000	98.731004 
3582.000000	98.734388 
3581.000000	98.738846 
3580.000000	98.739948 
3579.000000	98.735314 
3578.000000	98.725413 
3577.000000	98.713257 
3576.000000	98.702946 
3575.000000	98.696995 
3574.000000	98.694405 
3573.000000	98.692127 
3572.000000	98.688635 
3571.000000	98.685260 
3570.000000	98.683620 
3569.000000	98.682972 
3568.000000	98.681170 
3567.000000	98.677560 
3566.000000	98.672821 
3565.000000	98.667147 
3564.000000	98.661429 
3563.000000	98.658498 
3562.000000	98.660797 
3561.000000	98.667555 
3560.000000	98.675070 
3559.000000	98.679877 
3558.000000	98.680891 
3557.000000	98.678676 
3556.000000	98.674136 
3555.000000	98.668649 
3554.000000	98.664361 
3553.000000	98.662844 
3552.000000	98.663613 
3551.000000	98.664830 
3550.000000	98.665366 
3549.000000	98.665415 
3548.000000	98.665360 
3547.000000	98.664890 
3546.000000	98.663480 
3545.000000	98.661247 
3544.000000	98.658946 
3543.000000	98.657176 
3542.000000	98.655912 
3541.000000	98.654793 
3540.000000	98.653628 
3539.000000	98.652528 
3538.000000	98.651631 
3537.000000	98.650883 
3536.000000	98.650109 
3535.000000	98.649171 
3534.000000	98.648052 
3533.000000	98.646850 
3532.000000	98.645731 
3531.000000	98.644801 
3530.000000	98.644061 
3529.000000	98.643430 
3528.000000	98.642784 
3527.000000	98.642016 
3526.000000	98.641085 
3525.000000	98.640043 
3524.000000	98.638992 
3523.000000	98.637989 
3522.000000	98.637011 
3521.000000	98.636018 
3520.000000	98.635036 
3519.000000	98.634156 
3518.000000	98.633424 
3517.000000	98.632696 
3516.000000	98.631684 
3515.000000	98.630194 
3514.000000	98.628285 
3513.000000	98.626292 
3512.000000	98.624580 
3511.000000	98.623304 
3510.000000	98.622342 
3509.000000	98.621419 
3508.000000	98.620362 
3507.000000	98.619231 
3506.000000	98.618263 
3505.000000	98.617659 
3504.000000	98.617338 
3503.000000	98.616863 
3502.000000	98.615773 
3501.000000	98.614001 
3500.000000	98.611948 
3499.000000	98.610112 
3498.000000	98.608651 
3497.000000	98.607297 
3496.000000	98.605584 
3495.000000	98.603192 
3494.000000	98.600210 
3493.000000	98.597214 
3492.000000	98.594982 
3491.000000	98.593969 
3490.000000	98.593963 
3489.000000	98.594200 
3488.000000	98.593874 
3487.000000	98.592602 
3486.000000	98.590484 
3485.000000	98.587853 
3484.000000	98.585058 
3483.000000	98.582353 
3482.000000	98.579809 
3481.000000	98.577330 
3480.000000	98.574855 
3479.000000	98.572584 
3478.000000	98.570919 
3477.000000	98.570120 
3476.000000	98.569995 
3475.000000	98.569941 
3474.000000	98.569188 
3473.000000	98.566976 
3472.000000	98.562934 
3471.000000	98.557553 
3470.000000	98.552137 
3469.000000	98.548091 
3468.000000	98.545843 
3467.000000	98.544535 
3466.000000	98.542932 
3465.000000	98.540500 
3464.000000	98.537559 
3463.000000	98.534584 
3462.000000	98.531587 
3461.000000	98.528148 
3460.000000	98.523906 
3459.000000	98.518990 
3458.000000	98.514039 
3457.000000	98.509759 
3456.000000	98.506411 
3455.000000	98.503736 
3454.000000	98.501444 
3453.000000	98.499644 
3452.000000	98.498495 
3451.000000	98.497570 
3450.000000	98.495985 
3449.000000	98.493318 
3448.000000	98.490164 
3447.000000	98.487498 
3446.000000	98.485539 
3445.000000	98.483622 
3444.000000	98.481228 
3443.000000	98.478747 
3442.000000	98.477012 
3441.000000	98.476299 
3440.000000	98.476028 
3439.000000	98.475390 
3438.000000	98.474045 
3437.000000	98.472123 
3436.000000	98.469743 
3435.000000	98.466744 
3434.000000	98.462895 
3433.000000	98.458319 
3432.000000	98.453714 
3431.000000	98.450154 
3430.000000	98.448455 
3429.000000	98.448559 
3428.000000	98.449358 
3427.000000	98.449309 
3426.000000	98.447458 
3425.000000	98.443839 
3424.000000	98.439232 
3423.000000	98.434737 
3422.000000	98.431413 
3421.000000	98.429888 
3420.000000	98.429964 
3419.000000	98.430579 
3418.000000	98.430615 
3417.000000	98.429901 
3416.000000	98.429162 
3415.000000	98.429029 
3414.000000	98.429298 
3413.000000	98.429242 
3412.000000	98.428468 
3411.000000	98.427252 
3410.000000	98.426106 
3409.000000	98.425214 
3408.000000	98.424313 
3407.000000	98.422980 
3406.000000	98.421032 
3405.000000	98.418850 
3404.000000	98.417357 
3403.000000	98.417426 
3402.000000	98.419037 
3401.000000	98.421018 
3400.000000	98.421918 
3399.000000	98.421208 
3398.000000	98.419560 
3397.000000	98.418007 
3396.000000	98.416995 
3395.000000	98.416260 
3394.000000	98.415290 
3393.000000	98.413730 
3392.000000	98.411672 
3391.000000	98.409800 
3390.000000	98.408957 
3389.000000	98.409177 
3388.000000	98.409310 
3387.000000	98.408060 
3386.000000	98.405468 
3385.000000	98.402959 
3384.000000	98.401927 
3383.000000	98.402710 
3382.000000	98.404805 
3381.000000	98.407401 
3380.000000	98.409498 
3379.000000	98.410436 
3378.000000	98.410903 
3377.000000	98.412599 
3376.000000	98.416170 
3375.000000	98.419976 
3374.000000	98.421897 
3373.000000	98.422149 
3372.000000	98.423085 
3371.000000	98.426116 
3370.000000	98.429804 
3369.000000	98.431650 
3368.000000	98.431010 
3367.000000	98.429379 
3366.000000	98.428384 
3365.000000	98.428230 
3364.000000	98.428272 
3363.000000	98.428219 
3362.000000	98.428312 
3361.000000	98.428778 
3360.000000	98.429563 
3359.000000	98.430449 
3358.000000	98.431143 
3357.000000	98.431374 
3356.000000	98.431166 
3355.000000	98.431003 
3354.000000	98.431502 
3353.000000	98.432847 
3352.000000	98.434623 
3351.000000	98.436173 
3350.000000	98.437086 
3349.000000	98.437412 
3348.000000	98.437593 
3347.000000	98.438204 
3346.000000	98.439599 
3345.000000	98.441692 
3344.000000	98.444047 
3343.000000	98.446169 
3342.000000	98.447764 
3341.000000	98.448760 
3340.000000	98.449257 
3339.000000	98.449558 
3338.000000	98.450124 
3337.000000	98.451343 
3336.000000	98.453280 
3335.000000	98.455575 
3334.000000	98.457581 
3333.000000	98.458738 
3332.000000	98.458901 
3331.000000	98.458427 
3330.000000	98.458019 
3329.000000	98.458239 
3328.000000	98.459155 
3327.000000	98.460392 
3326.000000	98.461519 
3325.000000	98.462429 
3324.000000	98.463330 
3323.000000	98.464430 
3322.000000	98.465718 
3321.000000	98.467089 
3320.000000	98.468583 
3319.000000	98.470341 
3318.000000	98.472320 
3317.000000	98.474198 
3316.000000	98.475664 
3315.000000	98.476734 
3314.000000	98.477627 
3313.000000	98.478390 
3312.000000	98.478902 
3311.000000	98.479219 
3310.000000	98.479648 
3309.000000	98.480416 
3308.000000	98.481415 
3307.000000	98.482413 
3306.000000	98.483397 
3305.000000	98.484562 
3304.000000	98.486005 
3303.000000	98.487579 
3302.000000	98.489008 
3301.000000	98.490103 
3300.000000	98.490891 
3299.000000	98.491638 
3298.000000	98.492687 
3297.000000	98.494156 
3296.000000	98.495861 
3295.000000	98.497460 
3294.000000	98.498780 
3293.000000	98.499898 
3292.000000	98.500984 
3291.000000	98.502145 
3290.000000	98.503401 
3289.000000	98.504719 
3288.000000	98.506029 
3287.000000	98.507263 
3286.000000	98.508402 
3285.000000	98.509495 
3284.000000	98.510614 
3283.000000	98.511814 
3282.000000	98.513130 
3281.000000	98.514578 
3280.000000	98.516132 
3279.000000	98.517710 
3278.000000	98.519225 
3277.000000	98.520643 
3276.000000	98.521965 
3275.000000	98.523209 
3274.000000	98.524462 
3273.000000	98.525872 
3272.000000	98.527487 
3271.000000	98.529091 
3270.000000	98.530377 
3269.000000	98.531277 
3268.000000	98.532097 
3267.000000	98.533260 
3266.000000	98.534969 
3265.000000	98.537178 
3264.000000	98.539703 
3263.000000	98.542254 
3262.000000	98.544453 
3261.000000	98.546006 
3260.000000	98.546927 
3259.000000	98.547533 
3258.000000	98.548233 
3257.000000	98.549357 
3256.000000	98.551140 
3255.000000	98.553554 
3254.000000	98.556039 
3253.000000	98.557754 
3252.000000	98.558391 
3251.000000	98.558697 
3250.000000	98.559864 
3249.000000	98.562272 
3248.000000	98.565046 
3247.000000	98.566949 
3246.000000	98.567674 
3245.000000	98.568087 
3244.000000	98.569317 
3243.000000	98.571801 
3242.000000	98.575180 
3241.000000	98.578777 
3240.000000	98.582049 
3239.000000	98.584810 
3238.000000	98.587274 
3237.000000	98.589927 
3236.000000	98.593227 
3235.000000	98.597300 
3234.000000	98.601780 
3233.000000	98.605821 
3232.000000	98.608456 
3231.000000	98.609330 
3230.000000	98.609284 
3229.000000	98.609958 
3228.000000	98.612337 
3227.000000	98.615956 
3226.000000	98.619725 
3225.000000	98.623258 
3224.000000	98.626871 
3223.000000	98.630480 
3222.000000	98.633371 
3221.000000	98.635306 
3220.000000	98.637185 
3219.000000	98.639971 
3218.000000	98.643178 
3217.000000	98.645091 
3216.000000	98.644501 
3215.000000	98.641944 
3214.000000	98.639389 
3213.000000	98.638685 
3212.000000	98.640303 
3211.000000	98.643438 
3210.000000	98.647068 
3209.000000	98.650918 
3208.000000	98.655295 
3207.000000	98.660110 
3206.000000	98.664580 
3205.000000	98.668129 
3204.000000	98.671073 
3203.000000	98.674017 
3202.000000	98.676875 
3201.000000	98.679065 
3200.000000	98.680523 
3199.000000	98.681831 
3198.000000	98.683282 
3197.000000	98.684478 
3196.000000	98.685137 
3195.000000	98.685710 
3194.000000	98.686792 
3193.000000	98.688421 
3192.000000	98.690574 
3191.000000	98.693961 
3190.000000	98.699407 
3189.000000	98.706299 
3188.000000	98.712368 
3187.000000	98.715630 
3186.000000	98.716165 
3185.000000	98.715890 
3184.000000	98.716705 
3183.000000	98.718862 
3182.000000	98.721211 
3181.000000	98.722669 
3180.000000	98.723442 
3179.000000	98.724841 
3178.000000	98.727819 
3177.000000	98.731820 
3176.000000	98.735393 
3175.000000	98.738072 
3174.000000	98.741162 
3173.000000	98.746242 
3172.000000	98.753267 
3171.000000	98.760570 
3170.000000	98.766545 
3169.000000	98.770767 
3168.000000	98.773458 
3167.000000	98.774799 
3166.000000	98.775225 
3165.000000	98.775686 
3164.000000	98.776892 
3163.000000	98.778483 
3162.000000	98.779510 
3161.000000	98.779663 
3160.000000	98.779679 
3159.000000	98.780648 
3158.000000	98.783166 
3157.000000	98.786977 
3156.000000	98.791055 
3155.000000	98.794258 
3154.000000	98.796374 
3153.000000	98.798385 
3152.000000	98.801217 
3151.000000	98.804356 
3150.000000	98.806429 
3149.000000	98.807280 
3148.000000	98.808614 
3147.000000	98.811984 
3146.000000	98.816801 
3145.000000	98.821011 
3144.000000	98.823627 
3143.000000	98.825609 
3142.000000	98.828207 
3141.000000	98.831397 
3140.000000	98.834438 
3139.000000	98.837112 
3138.000000	98.839642 
3137.000000	98.841821 
3136.000000	98.843064 
3135.000000	98.843290 
3134.000000	98.843203 
3133.000000	98.843658 
3132.000000	98.845053 
3131.000000	98.847376 
3130.000000	98.850404 
3129.000000	98.853613 
3128.000000	98.856354 
3127.000000	98.858428 
3126.000000	98.860344 
3125.000000	98.862766 
3124.000000	98.865742 
3123.000000	98.868678 
3122.000000	98.871081 
3121.000000	98.873121 
3120.000000	98.875325 
3119.000000	98.877889 
3118.000000	98.880538 
3117.000000	98.882953 
3116.000000	98.885060 
3115.000000	98.886925 
3114.000000	98.888673 
3113.000000	98.890543 
3112.000000	98.892738 
3111.000000	98.895062 
3110.000000	98.897014 
3109.000000	98.898529 
3108.000000	98.900412 
3107.000000	98.903638 
3106.000000	98.908226 
3105.000000	98.913050 
3104.000000	98.916821 
3103.000000	98.919093 
3102.000000	98.920231 
3101.000000	98.920911 
3100.000000	98.921839 
3099.000000	98.923596 
3098.000000	98.926359 
3097.000000	98.929769 
3096.000000	98.933353 
3095.000000	98.937079 
3094.000000	98.941216 
3093.000000	98.945635 
3092.000000	98.949619 
3091.000000	98.952483 
3090.000000	98.954064 
3089.000000	98.954568 
3088.000000	98.954298 
3087.000000	98.953739 
3086.000000	98.953587 
3085.000000	98.954356 
3084.000000	98.956064 
3083.000000	98.958530 
3082.000000	98.961728 
3081.000000	98.965522 
3080.000000	98.969239 
3079.000000	98.972019 
3078.000000	98.973656 
3077.000000	98.974737 
3076.000000	98.975894 
3075.000000	98.977254 
3074.000000	98.978778 
3073.000000	98.980658 
3072.000000	98.982979 
3071.000000	98.985270 
3070.000000	98.986951 
3069.000000	98.988280 
3068.000000	98.990362 
3067.000000	98.993963 
3066.000000	98.998632 
3065.000000	99.003150 
3064.000000	99.006674 
3063.000000	99.009219 
3062.000000	99.011093 
3061.000000	99.012306 
3060.000000	99.012907 
3059.000000	99.013614 
3058.000000	99.015548 
3057.000000	99.019226 
3056.000000	99.023968 
3055.000000	99.028425 
3054.000000	99.031759 
3053.000000	99.034147 
3052.000000	99.036274 
3051.000000	99.038558 
3050.000000	99.040925 
3049.000000	99.043186 
3048.000000	99.045409 
3047.000000	99.047815 
3046.000000	99.050506 
3045.000000	99.053547 
3044.000000	99.057211 
3043.000000	99.061832 
3042.000000	99.067308 
3041.000000	99.072909 
3040.000000	99.077757 
3039.000000	99.081483 
3038.000000	99.084391 
3037.000000	99.087150 
3036.000000	99.090420 
3035.000000	99.094557 
3034.000000	99.099340 
3033.000000	99.104024 
3032.000000	99.107933 
3031.000000	99.111106 
3030.000000	99.114198 
3029.000000	99.117721 
3028.000000	99.121586 
3027.000000	99.125329 
3026.000000	99.128465 
3025.000000	99.130622 
3024.000000	99.131919 
3023.000000	99.133511 
3022.000000	99.137261 
3021.000000	99.144313 
3020.000000	99.154039 
3019.000000	99.164399 
3018.000000	99.173364 
3017.000000	99.180027 
3016.000000	99.184707 
3015.000000	99.188532 
3014.000000	99.192835 
3013.000000	99.198409 
3012.000000	99.205048 
3011.000000	99.211756 
3010.000000	99.217352 
3009.000000	99.221015 
3008.000000	99.222720 
3007.000000	99.223661 
3006.000000	99.226015 
3005.000000	99.231635 
3004.000000	99.240631 
3003.000000	99.251132 
3002.000000	99.260547 
3001.000000	99.267266 
3000.000000	99.271312 
2999.000000	99.273896 
2998.000000	99.276449 
2997.000000	99.279798 
2996.000000	99.284037 
2995.000000	99.289039 
2994.000000	99.294856 
2993.000000	99.301521 
2992.000000	99.308765 
2991.000000	99.316190 
2990.000000	99.323395 
2989.000000	99.329464 
2988.000000	99.332719 
2987.000000	99.331892 
2986.000000	99.327844 
2985.000000	99.323751 
2984.000000	99.322990 
2983.000000	99.326800 
2982.000000	99.333977 
2981.000000	99.342073 
2980.000000	99.348925 
2979.000000	99.353556 
2978.000000	99.356259 
2977.000000	99.357944 
2976.000000	99.359072 
2975.000000	99.359251 
2974.000000	99.358146 
2973.000000	99.356591 
2972.000000	99.356408 
2971.000000	99.358812 
2970.000000	99.362992 
2969.000000	99.366513 
2968.000000	99.367434 
2967.000000	99.366036 
2966.000000	99.364312 
2965.000000	99.363732 
2964.000000	99.363855 
2963.000000	99.363399 
2962.000000	99.362187 
2961.000000	99.361343 
2960.000000	99.361626 
2959.000000	99.362320 
2958.000000	99.362101 
2957.000000	99.360645 
2956.000000	99.359073 
2955.000000	99.358929 
2954.000000	99.360852 
2953.000000	99.364019 
2952.000000	99.366673 
2951.000000	99.367341 
2950.000000	99.365782 
2949.000000	99.362956 
2948.000000	99.360159 
2947.000000	99.358130 
2946.000000	99.356796 
2945.000000	99.355690 
2944.000000	99.354574 
2943.000000	99.353680 
2942.000000	99.353392 
2941.000000	99.353841 
2940.000000	99.355030 
2939.000000	99.357213 
2938.000000	99.360501 
2937.000000	99.363948 
2936.000000	99.365816 
2935.000000	99.365324 
2934.000000	99.363748 
2933.000000	99.363328 
2932.000000	99.365077 
2931.000000	99.367974 
2930.000000	99.370038 
2929.000000	99.370022 
2928.000000	99.368349 
2927.000000	99.366826 
2926.000000	99.367232 
2925.000000	99.369731 
2924.000000	99.372729 
2923.000000	99.374741 
2922.000000	99.376101 
2921.000000	99.378084 
2920.000000	99.380838 
2919.000000	99.383327 
2918.000000	99.385227 
2917.000000	99.387536 
2916.000000	99.390811 
2915.000000	99.393916 
2914.000000	99.395390 
2913.000000	99.395244 
2912.000000	99.394618 
2911.000000	99.394213 
2910.000000	99.393982 
2909.000000	99.394136 
2908.000000	99.395462 
2907.000000	99.398422 
2906.000000	99.402383 
2905.000000	99.405924 
2904.000000	99.407842 
2903.000000	99.408015 
2902.000000	99.407460 
2901.000000	99.407360 
2900.000000	99.407721 
2899.000000	99.407453 
2898.000000	99.406060 
2897.000000	99.404730 
2896.000000	99.405142 
2895.000000	99.407373 
2894.000000	99.409711 
2893.000000	99.410576 
2892.000000	99.409959 
2891.000000	99.408810 
2890.000000	99.407687 
2889.000000	99.406483 
2888.000000	99.405191 
2887.000000	99.404432 
2886.000000	99.405012 
2885.000000	99.406948 
2884.000000	99.409002 
2883.000000	99.409428 
2882.000000	99.407484 
2881.000000	99.404118 
2880.000000	99.401104 
2879.000000	99.399343 
2878.000000	99.398242 
2877.000000	99.396677 
2876.000000	99.394243 
2875.000000	99.391476 
2874.000000	99.389230 
2873.000000	99.388077 
2872.000000	99.388151 
2871.000000	99.389146 
2870.000000	99.390331 
2869.000000	99.390880 
2868.000000	99.390386 
2867.000000	99.389014 
2866.000000	99.387002 
2865.000000	99.384181 
2864.000000	99.380429 
2863.000000	99.376478 
2862.000000	99.373646 
2861.000000	99.372428 
2860.000000	99.371794 
2859.000000	99.370365 
2858.000000	99.368135 
2857.000000	99.366377 
2856.000000	99.365909 
2855.000000	99.366088 
2854.000000	99.365608 
2853.000000	99.363781 
2852.000000	99.360701 
2851.000000	99.356785 
2850.000000	99.352791 
2849.000000	99.350007 
2848.000000	99.349577 
2847.000000	99.351442 
2846.000000	99.354121 
2845.000000	99.355804 
2844.000000	99.355767 
2843.000000	99.354537 
2842.000000	99.353079 
2841.000000	99.352022 
2840.000000	99.351535 
2839.000000	99.351578 
2838.000000	99.351948 
2837.000000	99.352182 
2836.000000	99.351830 
2835.000000	99.351005 
2834.000000	99.350420 
2833.000000	99.350669 
2832.000000	99.351643 
2831.000000	99.352812 
2830.000000	99.353777 
2829.000000	99.354281 
2828.000000	99.354047 
2827.000000	99.353140 
2826.000000	99.352384 
2825.000000	99.352810 
2824.000000	99.354570 
2823.000000	99.356725 
2822.000000	99.358286 
2821.000000	99.359138 
2820.000000	99.359594 
2819.000000	99.359553 
2818.000000	99.358706 
2817.000000	99.357379 
2816.000000	99.356547 
2815.000000	99.356858 
2814.000000	99.358051 
2813.000000	99.359323 
2812.000000	99.360069 
2811.000000	99.360297 
2810.000000	99.360591 
2809.000000	99.361652 
2808.000000	99.363618 
2807.000000	99.365868 
2806.000000	99.367652 
2805.000000	99.368778 
2804.000000	99.369593 
2803.000000	99.370522 
2802.000000	99.371847 
2801.000000	99.373670 
2800.000000	99.375665 
2799.000000	99.377032 
2798.000000	99.377164 
2797.000000	99.376378 
2796.000000	99.375717 
2795.000000	99.376042 
2794.000000	99.377576 
2793.000000	99.380094 
2792.000000	99.383025 
2791.000000	99.385495 
2790.000000	99.386866 
2789.000000	99.387348 
2788.000000	99.387789 
2787.000000	99.388855 
2786.000000	99.390705 
2785.000000	99.393184 
2784.000000	99.395694 
2783.000000	99.397005 
2782.000000	99.396004 
2781.000000	99.392842 
2780.000000	99.388918 
2779.000000	99.385621 
2778.000000	99.383479 
2777.000000	99.382577 
2776.000000	99.383078 
2775.000000	99.384909 
2774.000000	99.387342 
2773.000000	99.389369 
2772.000000	99.390562 
2771.000000	99.391412 
2770.000000	99.392837 
2769.000000	99.395261 
2768.000000	99.397992 
2767.000000	99.399577 
2766.000000	99.399047 
2765.000000	99.396819 
2764.000000	99.394371 
2763.000000	99.392957 
2762.000000	99.392718 
2761.000000	99.392946 
2760.000000	99.392922 
2759.000000	99.392589 
2758.000000	99.392607 
2757.000000	99.393765 
2756.000000	99.396158 
2755.000000	99.398967 
2754.000000	99.401281 
2753.000000	99.402908 
2752.000000	99.404165 
2751.000000	99.405144 
2750.000000	99.405568 
2749.000000	99.405274 
2748.000000	99.404515 
2747.000000	99.403780 
2746.000000	99.403547 
2745.000000	99.404142 
2744.000000	99.405543 
2743.000000	99.407322 
2742.000000	99.408983 
2741.000000	99.410343 
2740.000000	99.411489 
2739.000000	99.412463 
2738.000000	99.413170 
2737.000000	99.413592 
2736.000000	99.413922 
2735.000000	99.414416 
2734.000000	99.415174 
2733.000000	99.416092 
2732.000000	99.416985 
2731.000000	99.417727 
2730.000000	99.418304 
2729.000000	99.418761 
2728.000000	99.419140 
2727.000000	99.419498 
2726.000000	99.419943 
2725.000000	99.420559 
2724.000000	99.421305 
2723.000000	99.422080 
2722.000000	99.422822 
2721.000000	99.423541 
2720.000000	99.424299 
2719.000000	99.425191 
2718.000000	99.426204 
2717.000000	99.427109 
2716.000000	99.427639 
2715.000000	99.427867 
2714.000000	99.428265 
2713.000000	99.429256 
2712.000000	99.430746 
2711.000000	99.432016 
2710.000000	99.432242 
2709.000000	99.431208 
2708.000000	99.429611 
2707.000000	99.428528 
2706.000000	99.428664 
2705.000000	99.430159 
2704.000000	99.432617 
2703.000000	99.435034 
2702.000000	99.436088 
2701.000000	99.435121 
2700.000000	99.432985 
2699.000000	99.431673 
2698.000000	99.432776 
2697.000000	99.436210 
2696.000000	99.440271 
2695.000000	99.443030 
2694.000000	99.443855 
2693.000000	99.443570 
2692.000000	99.443289 
2691.000000	99.443376 
2690.000000	99.443618 
2689.000000	99.443770 
2688.000000	99.443335 
2687.000000	99.441427 
2686.000000	99.437953 
2685.000000	99.434827 
2684.000000	99.434899 
2683.000000	99.439430 
2682.000000	99.447243 
2681.000000	99.456039 
2680.000000	99.463409 
2679.000000	99.466878 
2678.000000	99.464961 
2677.000000	99.459048 
2676.000000	99.452737 
2675.000000	99.447752 
2674.000000	99.441621 
2673.000000	99.430815 
2672.000000	99.415530 
2671.000000	99.400105 
2670.000000	99.389056 
2669.000000	99.383934 
2668.000000	99.383865 
2667.000000	99.387497 
2666.000000	99.393882 
2665.000000	99.402363 
2664.000000	99.412234 
2663.000000	99.422483 
2662.000000	99.431895 
2661.000000	99.439596 
2660.000000	99.445294 
2659.000000	99.448558 
2658.000000	99.448126 
2657.000000	99.442689 
2656.000000	99.432569 
2655.000000	99.420046 
2654.000000	99.407641 
2653.000000	99.396264 
2652.000000	99.385340 
2651.000000	99.374456 
2650.000000	99.364608 
2649.000000	99.357959 
2648.000000	99.356550 
2647.000000	99.361025 
2646.000000	99.370112 
2645.000000	99.381238 
2644.000000	99.392119 
2643.000000	99.402226 
2642.000000	99.412655 
2641.000000	99.424494 
2640.000000	99.437564 
2639.000000	99.450976 
2638.000000	99.464418 
2637.000000	99.478040 
2636.000000	99.490951 
2635.000000	99.500523 
2634.000000	99.503774 
2633.000000	99.499489 
2632.000000	99.489220 
2631.000000	99.476687 
2630.000000	99.465884 
2629.000000	99.458881 
2628.000000	99.455095 
2627.000000	99.453059 
2626.000000	99.452872 
2625.000000	99.456106 
2624.000000	99.463051 
2623.000000	99.471163 
2622.000000	99.477205 
2621.000000	99.480435 
2620.000000	99.482606 
2619.000000	99.485163 
2618.000000	99.487535 
2617.000000	99.488341 
2616.000000	99.487246 
2615.000000	99.485042 
2614.000000	99.482548 
2613.000000	99.480237 
2612.000000	99.478740 
2611.000000	99.478786 
2610.000000	99.480022 
2609.000000	99.480472 
2608.000000	99.478323 
2607.000000	99.474444 
2606.000000	99.472064 
2605.000000	99.473183 
2604.000000	99.476272 
2603.000000	99.478453 
2602.000000	99.479193 
2601.000000	99.480348 
2600.000000	99.482892 
2599.000000	99.485443 
2598.000000	99.486526 
2597.000000	99.486554 
2596.000000	99.486539 
2595.000000	99.486239 
2594.000000	99.484959 
2593.000000	99.483206 
2592.000000	99.482138 
2591.000000	99.481869 
2590.000000	99.481467 
2589.000000	99.480400 
2588.000000	99.479234 
2587.000000	99.478889 
2586.000000	99.479560 
2585.000000	99.480502 
2584.000000	99.480704 
2583.000000	99.479836 
2582.000000	99.478689 
2581.000000	99.478507 
2580.000000	99.479648 
2579.000000	99.481211 
2578.000000	99.482128 
2577.000000	99.482285 
2576.000000	99.482134 
2575.000000	99.481736 
2574.000000	99.480883 
2573.000000	99.479875 
2572.000000	99.479329 
2571.000000	99.479269 
2570.000000	99.479141 
2569.000000	99.478641 
2568.000000	99.477756 
2567.000000	99.476117 
2566.000000	99.473354 
2565.000000	99.470186 
2564.000000	99.468068 
2563.000000	99.467489 
2562.000000	99.467670 
2561.000000	99.468157 
2560.000000	99.469602 
2559.000000	99.472306 
2558.000000	99.475075 
2557.000000	99.476436 
2556.000000	99.476405 
2555.000000	99.476237 
2554.000000	99.476824 
2553.000000	99.477898 
2552.000000	99.478585 
2551.000000	99.478130 
2550.000000	99.476259 
2549.000000	99.473448 
2548.000000	99.470832 
2547.000000	99.469371 
2546.000000	99.469148 
2545.000000	99.469671 
2544.000000	99.470600 
2543.000000	99.471838 
2542.000000	99.473025 
2541.000000	99.473479 
2540.000000	99.472801 
2539.000000	99.471273 
2538.000000	99.469610 
2537.000000	99.468470 
2536.000000	99.468252 
2535.000000	99.469064 
2534.000000	99.470587 
2533.000000	99.472058 
2532.000000	99.472706 
2531.000000	99.472464 
2530.000000	99.472252 
2529.000000	99.473277 
2528.000000	99.475905 
2527.000000	99.479198 
2526.000000	99.481651 
2525.000000	99.482439 
2524.000000	99.481832 
2523.000000	99.480791 
2522.000000	99.480250 
2521.000000	99.480574 
2520.000000	99.481434 
2519.000000	99.482168 
2518.000000	99.482484 
2517.000000	99.482762 
2516.000000	99.483510 
2515.000000	99.484743 
2514.000000	99.486170 
2513.000000	99.487644 
2512.000000	99.488946 
2511.000000	99.489438 
2510.000000	99.488688 
2509.000000	99.487352 
2508.000000	99.486765 
2507.000000	99.487587 
2506.000000	99.489395 
2505.000000	99.491492 
2504.000000	99.493304 
2503.000000	99.494058 
2502.000000	99.493090 
2501.000000	99.490746 
2500.000000	99.488257 
2499.000000	99.486410 
2498.000000	99.485048 
2497.000000	99.484072 
2496.000000	99.483939 
2495.000000	99.484844 
2494.000000	99.486376 
2493.000000	99.488409 
2492.000000	99.491319 
2491.000000	99.494669 
2490.000000	99.496728 
2489.000000	99.496282 
2488.000000	99.494104 
2487.000000	99.491582 
2486.000000	99.488531 
2485.000000	99.483703 
2484.000000	99.477193 
2483.000000	99.471206 
2482.000000	99.468160 
2481.000000	99.468805 
2480.000000	99.472255 
2479.000000	99.476919 
2478.000000	99.481355 
2477.000000	99.484812 
2476.000000	99.487177 
2475.000000	99.488432 
2474.000000	99.488374 
2473.000000	99.487055 
2472.000000	99.485129 
2471.000000	99.483400 
2470.000000	99.482200 
2469.000000	99.481480 
2468.000000	99.481185 
2467.000000	99.481256 
2466.000000	99.481657 
2465.000000	99.482764 
2464.000000	99.485288 
2463.000000	99.489246 
2462.000000	99.493241 
2461.000000	99.495450 
2460.000000	99.495313 
2459.000000	99.493767 
2458.000000	99.492013 
2457.000000	99.490362 
2456.000000	99.488388 
2455.000000	99.485851 
2454.000000	99.483298 
2453.000000	99.481762 
2452.000000	99.481784 
2451.000000	99.482826 
2450.000000	99.483800 
2449.000000	99.484274 
2448.000000	99.484916 
2447.000000	99.486594 
2446.000000	99.489311 
2445.000000	99.492113 
2444.000000	99.493871 
2443.000000	99.494093 
2442.000000	99.493152 
2441.000000	99.491916 
2440.000000	99.491050 
2439.000000	99.490653 
2438.000000	99.490566 
2437.000000	99.490749 
2436.000000	99.491177 
2435.000000	99.491602 
2434.000000	99.491727 
2433.000000	99.491569 
2432.000000	99.491385 
2431.000000	99.491284 
2430.000000	99.491177 
2429.000000	99.491050 
2428.000000	99.491016 
2427.000000	99.491078 
2426.000000	99.491070 
2425.000000	99.490876 
2424.000000	99.490495 
2423.000000	99.489917 
2422.000000	99.489156 
2421.000000	99.488432 
2420.000000	99.488081 
2419.000000	99.488218 
2418.000000	99.488670 
2417.000000	99.489168 
2416.000000	99.489505 
2415.000000	99.489545 
2414.000000	99.489251 
2413.000000	99.488769 
2412.000000	99.488418 
2411.000000	99.488305 
2410.000000	99.488311 
2409.000000	99.488302 
2408.000000	99.488238 
2407.000000	99.488118 
2406.000000	99.487951 
2405.000000	99.487761 
2404.000000	99.487599 
2403.000000	99.487507 
2402.000000	99.487453 
2401.000000	99.487364 
2400.000000	99.487216 
2399.000000	99.487063 
2398.000000	99.486989 
2397.000000	99.487050 
2396.000000	99.487235 
2395.000000	99.487441 
2394.000000	99.487517 
2393.000000	99.487390 
2392.000000	99.487173 
2391.000000	99.487037 
2390.000000	99.487017 
2389.000000	99.487055 
2388.000000	99.487173 
2387.000000	99.487491 
2386.000000	99.488019 
2385.000000	99.488608 
2384.000000	99.489091 
2383.000000	99.489364 
2382.000000	99.489436 
2381.000000	99.489459 
2380.000000	99.489606 
2379.000000	99.489870 
2378.000000	99.490065 
2377.000000	99.490091 
2376.000000	99.490073 
2375.000000	99.490148 
2374.000000	99.490233 
2373.000000	99.490170 
2372.000000	99.490019 
2371.000000	99.490040 
2370.000000	99.490382 
2369.000000	99.490919 
2368.000000	99.491281 
2367.000000	99.491174 
2366.000000	99.490603 
2365.000000	99.489858 
2364.000000	99.489227 
2363.000000	99.488706 
2362.000000	99.488135 
2361.000000	99.487490 
2360.000000	99.486866 
2359.000000	99.486314 
2358.000000	99.485825 
2357.000000	99.485375 
2356.000000	99.484964 
2355.000000	99.484552 
2354.000000	99.484202 
2353.000000	99.483880 
2352.000000	99.483371 
2351.000000	99.482504 
2350.000000	99.481309 
2349.000000	99.479986 
2348.000000	99.478748 
2347.000000	99.477728 
2346.000000	99.476917 
2345.000000	99.476158 
2344.000000	99.475297 
2343.000000	99.474310 
2342.000000	99.473303 
2341.000000	99.472322 
2340.000000	99.471363 
2339.000000	99.470438 
2338.000000	99.469576 
2337.000000	99.468767 
2336.000000	99.467881 
2335.000000	99.466886 
2334.000000	99.465905 
2333.000000	99.465147 
2332.000000	99.464527 
2331.000000	99.463897 
2330.000000	99.463080 
2329.000000	99.462202 
2328.000000	99.461188 
2327.000000	99.460084 
2326.000000	99.458969 
2325.000000	99.458091 
2324.000000	99.457647 
2323.000000	99.457639 
2322.000000	99.457893 
2321.000000	99.458080 
2320.000000	99.457910 
2319.000000	99.457490 
2318.000000	99.457021 
2317.000000	99.456808 
2316.000000	99.456714 
2315.000000	99.456805 
2314.000000	99.456946 
2313.000000	99.457358 
2312.000000	99.457863 
2311.000000	99.458572 
2310.000000	99.459167 
2309.000000	99.459523 
2308.000000	99.459408 
2307.000000	99.459462 
2306.000000	99.460235 
2305.000000	99.461897 
2304.000000	99.463536 
2303.000000	99.464702 
2302.000000	99.465417 
2301.000000	99.466153 
2300.000000	99.466785 
2299.000000	99.467582 
2298.000000	99.468583 
2297.000000	99.469842 
2296.000000	99.470731 
2295.000000	99.471151 
2294.000000	99.471412 
2293.000000	99.472125 
2292.000000	99.473301 
2291.000000	99.474661 
2290.000000	99.475962 
2289.000000	99.477120 
2288.000000	99.478194 
2287.000000	99.479374 
2286.000000	99.480891 
2285.000000	99.482488 
2284.000000	99.483597 
2283.000000	99.483927 
2282.000000	99.483981 
2281.000000	99.484466 
2280.000000	99.485647 
2279.000000	99.487388 
2278.000000	99.489764 
2277.000000	99.493006 
2276.000000	99.496650 
2275.000000	99.499355 
2274.000000	99.499953 
2273.000000	99.498564 
2272.000000	99.496490 
2271.000000	99.495185 
2270.000000	99.495142 
2269.000000	99.495892 
2268.000000	99.496540 
2267.000000	99.496464 
2266.000000	99.495694 
2265.000000	99.494861 
2264.000000	99.494685 
2263.000000	99.495478 
2262.000000	99.497063 
2261.000000	99.498976 
2260.000000	99.500721 
2259.000000	99.501783 
2258.000000	99.501880 
2257.000000	99.501212 
2256.000000	99.500485 
2255.000000	99.500328 
2254.000000	99.500676 
2253.000000	99.501037 
2252.000000	99.501206 
2251.000000	99.501634 
2250.000000	99.502792 
2249.000000	99.504592 
2248.000000	99.506323 
2247.000000	99.507203 
2246.000000	99.506761 
2245.000000	99.505114 
2244.000000	99.503009 
2243.000000	99.501330 
2242.000000	99.500215 
2241.000000	99.498865 
2240.000000	99.496566 
2239.000000	99.493747 
2238.000000	99.491715 
2237.000000	99.491302 
2236.000000	99.492122 
2235.000000	99.493098 
2234.000000	99.493486 
2233.000000	99.493244 
2232.000000	99.492665 
2231.000000	99.491971 
2230.000000	99.491241 
2229.000000	99.490562 
2228.000000	99.490136 
2227.000000	99.490173 
2226.000000	99.490702 
2225.000000	99.491530 
2224.000000	99.492319 
2223.000000	99.492657 
2222.000000	99.492155 
2221.000000	99.490688 
2220.000000	99.488691 
2219.000000	99.487068 
2218.000000	99.486546 
2217.000000	99.487105 
2216.000000	99.488045 
2215.000000	99.488579 
2214.000000	99.488432 
2213.000000	99.487932 
2212.000000	99.487712 
2211.000000	99.488212 
2210.000000	99.489305 
2209.000000	99.490366 
2208.000000	99.490844 
2207.000000	99.490760 
2206.000000	99.490575 
2205.000000	99.490576 
2204.000000	99.490601 
2203.000000	99.490394 
2202.000000	99.490012 
2201.000000	99.489748 
2200.000000	99.489761 
2199.000000	99.489881 
2198.000000	99.489821 
2197.000000	99.489512 
2196.000000	99.489180 
2195.000000	99.489109 
2194.000000	99.489385 
2193.000000	99.489888 
2192.000000	99.490452 
2191.000000	99.490962 
2190.000000	99.491333 
2189.000000	99.491466 
2188.000000	99.491315 
2187.000000	99.490954 
2186.000000	99.490575 
2185.000000	99.490367 
2184.000000	99.490391 
2183.000000	99.490578 
2182.000000	99.490782 
2181.000000	99.490863 
2180.000000	99.490767 
2179.000000	99.490531 
2178.000000	99.490263 
2177.000000	99.490070 
2176.000000	99.490020 
2175.000000	99.490150 
2174.000000	99.490451 
2173.000000	99.490849 
2172.000000	99.491237 
2171.000000	99.491537 
2170.000000	99.491717 
2169.000000	99.491710 
2168.000000	99.491406 
2167.000000	99.490807 
2166.000000	99.490186 
2165.000000	99.489960 
2164.000000	99.490341 
2163.000000	99.491158 
2162.000000	99.491957 
2161.000000	99.492374 
2160.000000	99.492369 
2159.000000	99.492164 
2158.000000	99.492000 
2157.000000	99.491911 
2156.000000	99.491737 
2155.000000	99.491334 
2154.000000	99.490750 
2153.000000	99.490174 
2152.000000	99.489731 
2151.000000	99.489377 
2150.000000	99.488992 
2149.000000	99.488524 
2148.000000	99.488006 
2147.000000	99.487518 
2146.000000	99.487175 
2145.000000	99.487116 
2144.000000	99.487473 
2143.000000	99.488374 
2142.000000	99.489877 
2141.000000	99.491679 
2140.000000	99.492915 
2139.000000	99.492693 
2138.000000	99.490984 
2137.000000	99.488998 
2136.000000	99.488240 
2135.000000	99.489155 
2134.000000	99.490965 
2133.000000	99.492553 
2132.000000	99.493309 
2131.000000	99.493087 
2130.000000	99.491895 
2129.000000	99.489951 
2128.000000	99.487740 
2127.000000	99.485765 
2126.000000	99.484398 
2125.000000	99.483946 
2124.000000	99.484452 
2123.000000	99.485279 
2122.000000	99.485372 
2121.000000	99.484339 
2120.000000	99.482889 
2119.000000	99.481888 
2118.000000	99.481403 
2117.000000	99.481069 
2116.000000	99.480860 
2115.000000	99.480818 
2114.000000	99.480395 
2113.000000	99.478923 
2112.000000	99.476668 
2111.000000	99.474737 
2110.000000	99.473934 
2109.000000	99.474312 
2108.000000	99.475660 
2107.000000	99.477646 
2106.000000	99.479522 
2105.000000	99.480519 
2104.000000	99.480730 
2103.000000	99.480985 
2102.000000	99.481727 
2101.000000	99.482611 
2100.000000	99.483307 
2099.000000	99.483985 
2098.000000	99.484841 
2097.000000	99.485777 
2096.000000	99.486714 
2095.000000	99.487581 
2094.000000	99.487831 
2093.000000	99.486792 
2092.000000	99.484772 
2091.000000	99.483023 
2090.000000	99.482443 
2089.000000	99.483152 
2088.000000	99.485316 
2087.000000	99.489175 
2086.000000	99.493730 
2085.000000	99.496658 
2084.000000	99.496566 
2083.000000	99.494464 
2082.000000	99.492404 
2081.000000	99.491082 
2080.000000	99.489708 
2079.000000	99.487723 
2078.000000	99.485352 
2077.000000	99.482798 
2076.000000	99.480088 
2075.000000	99.477784 
2074.000000	99.476886 
2073.000000	99.477750 
2072.000000	99.479683 
2071.000000	99.481745 
2070.000000	99.483446 
2069.000000	99.484619 
2068.000000	99.485239 
2067.000000	99.485668 
2066.000000	99.486613 
2065.000000	99.488437 
2064.000000	99.490581 
2063.000000	99.492016 
2062.000000	99.492247 
2061.000000	99.491729 
2060.000000	99.491272 
2059.000000	99.491089 
2058.000000	99.490555 
2057.000000	99.488916 
2056.000000	99.486131 
2055.000000	99.483015 
2054.000000	99.480666 
2053.000000	99.479790 
2052.000000	99.480395 
2051.000000	99.481787 
2050.000000	99.482939 
2049.000000	99.483237 
2048.000000	99.482928 
2047.000000	99.482649 
2046.000000	99.482594 
2045.000000	99.482507 
2044.000000	99.482447 
2043.000000	99.482952 
2042.000000	99.484150 
2041.000000	99.485146 
2040.000000	99.484886 
2039.000000	99.483388 
2038.000000	99.481741 
2037.000000	99.480873 
2036.000000	99.480525 
2035.000000	99.479707 
2034.000000	99.477945 
2033.000000	99.475798 
2032.000000	99.474263 
2031.000000	99.473812 
2030.000000	99.474138 
2029.000000	99.474643 
2028.000000	99.475028 
2027.000000	99.475291 
2026.000000	99.475252 
2025.000000	99.474544 
2024.000000	99.473220 
2023.000000	99.472074 
2022.000000	99.471915 
2021.000000	99.472574 
2020.000000	99.473014 
2019.000000	99.472513 
2018.000000	99.471365 
2017.000000	99.470308 
2016.000000	99.469541 
2015.000000	99.468658 
2014.000000	99.467299 
2013.000000	99.465436 
2012.000000	99.463204 
2011.000000	99.460924 
2010.000000	99.459268 
2009.000000	99.458861 
2008.000000	99.459508 
2007.000000	99.460196 
2006.000000	99.460186 
2005.000000	99.459897 
2004.000000	99.460278 
2003.000000	99.461413 
2002.000000	99.462129 
2001.000000	99.461114 
2000.000000	99.458256 
1999.000000	99.454787 
1998.000000	99.452236 
1997.000000	99.451435 
1996.000000	99.452450 
1995.000000	99.454935 
1994.000000	99.458248 
1993.000000	99.461454 
1992.000000	99.463736 
1991.000000	99.465002 
1990.000000	99.465838 
1989.000000	99.466645 
1988.000000	99.467044 
1987.000000	99.466317 
1986.000000	99.464316 
1985.000000	99.461838 
1984.000000	99.460056 
1983.000000	99.459572 
1982.000000	99.460035 
1981.000000	99.460587 
1980.000000	99.460761 
1979.000000	99.460826 
1978.000000	99.461295 
1977.000000	99.462286 
1976.000000	99.463486 
1975.000000	99.464616 
1974.000000	99.465747 
1973.000000	99.467134 
1972.000000	99.468919 
1971.000000	99.471068 
1970.000000	99.473479 
1969.000000	99.475915 
1968.000000	99.477782 
1967.000000	99.478239 
1966.000000	99.476936 
1965.000000	99.474582 
1964.000000	99.472482 
1963.000000	99.471484 
1962.000000	99.471558 
1961.000000	99.472229 
1960.000000	99.473109 
1959.000000	99.474025 
1958.000000	99.475059 
1957.000000	99.476668 
1956.000000	99.479338 
1955.000000	99.482685 
1954.000000	99.485244 
1953.000000	99.485788 
1952.000000	99.484458 
1951.000000	99.482391 
1950.000000	99.480503 
1949.000000	99.479052 
1948.000000	99.478246 
1947.000000	99.478432 
1946.000000	99.479488 
1945.000000	99.480680 
1944.000000	99.481514 
1943.000000	99.482235 
1942.000000	99.483074 
1941.000000	99.483602 
1940.000000	99.483317 
1939.000000	99.482255 
1938.000000	99.480736 
1937.000000	99.478978 
1936.000000	99.477167 
1935.000000	99.475614 
1934.000000	99.474481 
1933.000000	99.473566 
1932.000000	99.472597 
1931.000000	99.471694 
1930.000000	99.471257 
1929.000000	99.471462 
1928.000000	99.472126 
1927.000000	99.472893 
1926.000000	99.473482 
1925.000000	99.473572 
1924.000000	99.472830 
1923.000000	99.471129 
1922.000000	99.468732 
1921.000000	99.466278 
1920.000000	99.464573 
1919.000000	99.464355 
1918.000000	99.465832 
1917.000000	99.468139 
1916.000000	99.469942 
1915.000000	99.470447 
1914.000000	99.469493 
1913.000000	99.467487 
1912.000000	99.465429 
1911.000000	99.464352 
1910.000000	99.464252 
1909.000000	99.463840 
1908.000000	99.461863 
1907.000000	99.458238 
1906.000000	99.453638 
1905.000000	99.448388 
1904.000000	99.442744 
1903.000000	99.437871 
1902.000000	99.435352 
1901.000000	99.435462 
1900.000000	99.436655 
1899.000000	99.437011 
1898.000000	99.435887 
1897.000000	99.433988 
1896.000000	99.432428 
1895.000000	99.431688 
1894.000000	99.430943 
1893.000000	99.428416 
1892.000000	99.423074 
1891.000000	99.416245 
1890.000000	99.411052 
1889.000000	99.409422 
1888.000000	99.410308 
1887.000000	99.411653 
1886.000000	99.412623 
1885.000000	99.413286 
1884.000000	99.413420 
1883.000000	99.412732 
1882.000000	99.411720 
1881.000000	99.411342 
1880.000000	99.411848 
1879.000000	99.412337 
1878.000000	99.411473 
1877.000000	99.408614 
1876.000000	99.404488 
1875.000000	99.401024 
1874.000000	99.400145 
1873.000000	99.402234 
1872.000000	99.405794 
1871.000000	99.408870 
1870.000000	99.410840 
1869.000000	99.412620 
1868.000000	99.415127 
1867.000000	99.418192 
1866.000000	99.420772 
1865.000000	99.421549 
1864.000000	99.420131 
1863.000000	99.418008 
1862.000000	99.417660 
1861.000000	99.420314 
1860.000000	99.424934 
1859.000000	99.429557 
1858.000000	99.433149 
1857.000000	99.435758 
1856.000000	99.437653 
1855.000000	99.439322 
1854.000000	99.441823 
1853.000000	99.446031 
1852.000000	99.451380 
1851.000000	99.455681 
1850.000000	99.456914 
1849.000000	99.455164 
1848.000000	99.452717 
1847.000000	99.451897 
1846.000000	99.453062 
1845.000000	99.455009 
1844.000000	99.456596 
1843.000000	99.457693 
1842.000000	99.458609 
1841.000000	99.459276 
1840.000000	99.459921 
1839.000000	99.461606 
1838.000000	99.464976 
1837.000000	99.468817 
1836.000000	99.471222 
1835.000000	99.472068 
1834.000000	99.472990 
1833.000000	99.475019 
1832.000000	99.477454 
1831.000000	99.478999 
1830.000000	99.479126 
1829.000000	99.478104 
1828.000000	99.476663 
1827.000000	99.475906 
1826.000000	99.477087 
1825.000000	99.480575 
1824.000000	99.484517 
1823.000000	99.486327 
1822.000000	99.485379 
1821.000000	99.483033 
1820.000000	99.480946 
1819.000000	99.479650 
1818.000000	99.478859 
1817.000000	99.478311 
1816.000000	99.477917 
1815.000000	99.477576 
1814.000000	99.477136 
1813.000000	99.476455 
1812.000000	99.475416 
1811.000000	99.474302 
1810.000000	99.473940 
1809.000000	99.474588 
1808.000000	99.475051 
1807.000000	99.474129 
1806.000000	99.472566 
1805.000000	99.472228 
1804.000000	99.473500 
1803.000000	99.474700 
1802.000000	99.474274 
1801.000000	99.472827 
1800.000000	99.471999 
1799.000000	99.472273 
1798.000000	99.473155 
1797.000000	99.474475 
1796.000000	99.476338 
1795.000000	99.478354 
1794.000000	99.479686 
1793.000000	99.479954 
1792.000000	99.479505 
1791.000000	99.478910 
1790.000000	99.478756 
1789.000000	99.479147 
1788.000000	99.479360 
1787.000000	99.478673 
1786.000000	99.477509 
1785.000000	99.477374 
1784.000000	99.479157 
1783.000000	99.482040 
1782.000000	99.484360 
1781.000000	99.485512 
1780.000000	99.486213 
1779.000000	99.487310 
1778.000000	99.488725 
1777.000000	99.489647 
1776.000000	99.489529 
1775.000000	99.488589 
1774.000000	99.487692 
1773.000000	99.487836 
1772.000000	99.488543 
1771.000000	99.487473 
1770.000000	99.483827 
1769.000000	99.479671 
1768.000000	99.477930 
1767.000000	99.479759 
1766.000000	99.483643 
1765.000000	99.487456 
1764.000000	99.490312 
1763.000000	99.492279 
1762.000000	99.493215 
1761.000000	99.493009 
1760.000000	99.492559 
1759.000000	99.492981 
1758.000000	99.493966 
1757.000000	99.494012 
1756.000000	99.492118 
1755.000000	99.488722 
1754.000000	99.484713 
1753.000000	99.480507 
1752.000000	99.476661 
1751.000000	99.473917 
1750.000000	99.472354 
1749.000000	99.471666 
1748.000000	99.471983 
1747.000000	99.473030 
1746.000000	99.473570 
1745.000000	99.472864 
1744.000000	99.471531 
1743.000000	99.470437 
1742.000000	99.469246 
1741.000000	99.466981 
1740.000000	99.463542 
1739.000000	99.459918 
1738.000000	99.456926 
1737.000000	99.454641 
1736.000000	99.452582 
1735.000000	99.450798 
1734.000000	99.449378 
1733.000000	99.446887 
1732.000000	99.444443 
1731.000000	99.444213 
1730.000000	99.445239 
1729.000000	99.444317 
1728.000000	99.439406 
1727.000000	99.431466 
1726.000000	99.422907 
1725.000000	99.415823 
1724.000000	99.410960 
1723.000000	99.407917 
1722.000000	99.406114 
1721.000000	99.405433 
1720.000000	99.405959 
1719.000000	99.407074 
1718.000000	99.406350 
1717.000000	99.400592 
1716.000000	99.390486 
1715.000000	99.380543 
1714.000000	99.373614 
1713.000000	99.368676 
1712.000000	99.363074 
1711.000000	99.355754 
1710.000000	99.347920 
1709.000000	99.341380 
1708.000000	99.336687 
1707.000000	99.332729 
1706.000000	99.328262 
1705.000000	99.322877 
1704.000000	99.316899 
1703.000000	99.310430 
1702.000000	99.302834 
1701.000000	99.294643 
1700.000000	99.287760 
1699.000000	99.281245 
1698.000000	99.274299 
1697.000000	99.267036 
1696.000000	99.259519 
1695.000000	99.251808 
1694.000000	99.244398 
1693.000000	99.237622 
1692.000000	99.230611 
1691.000000	99.222823 
1690.000000	99.215012 
1689.000000	99.208449 
1688.000000	99.203225 
1687.000000	99.197235 
1686.000000	99.187650 
1685.000000	99.174568 
1684.000000	99.162762 
1683.000000	99.154110 
1682.000000	99.146717 
1681.000000	99.139396 
1680.000000	99.133054 
1679.000000	99.128957 
1678.000000	99.125550 
1677.000000	99.119253 
1676.000000	99.108789 
1675.000000	99.097753 
1674.000000	99.089846 
1673.000000	99.084696 
1672.000000	99.080331 
1671.000000	99.076492 
1670.000000	99.074242 
1669.000000	99.072480 
1668.000000	99.068796 
1667.000000	99.062920 
1666.000000	99.054955 
1665.000000	99.044029 
1664.000000	99.029830 
1663.000000	99.014554 
1662.000000	99.001062 
1661.000000	98.990152 
1660.000000	98.981628 
1659.000000	98.975977 
1658.000000	98.973656 
1657.000000	98.973475 
1656.000000	98.971996 
1655.000000	98.964964 
1654.000000	98.953222 
1653.000000	98.944766 
1652.000000	98.940371 
1651.000000	98.938793 
1650.000000	98.938559 
1649.000000	98.936666 
1648.000000	98.931346 
1647.000000	98.921986 
1646.000000	98.910327 
1645.000000	98.902269 
1644.000000	98.902347 
1643.000000	98.908454 
1642.000000	98.914354 
1641.000000	98.915139 
1640.000000	98.911322 
1639.000000	98.907306 
1638.000000	98.906155 
1637.000000	98.907257 
1636.000000	98.908785 
1635.000000	98.909474 
1634.000000	98.910130 
1633.000000	98.911471 
1632.000000	98.911881 
1631.000000	98.910845 
1630.000000	98.910308 
1629.000000	98.912304 
1628.000000	98.916437 
1627.000000	98.920926 
1626.000000	98.925014 
1625.000000	98.929146 
1624.000000	98.933804 
1623.000000	98.938728 
1622.000000	98.942701 
1621.000000	98.945257 
1620.000000	98.947018 
1619.000000	98.948623 
1618.000000	98.951514 
1617.000000	98.957845 
1616.000000	98.967047 
1615.000000	98.976550 
1614.000000	98.985061 
1613.000000	98.991437 
1612.000000	98.995005 
1611.000000	98.996963 
1610.000000	98.999671 
1609.000000	99.004267 
1608.000000	99.010008 
1607.000000	99.016020 
1606.000000	99.022221 
1605.000000	99.028998 
1604.000000	99.036314 
1603.000000	99.043127 
1602.000000	99.048185 
1601.000000	99.051572 
1600.000000	99.054952 
1599.000000	99.060086 
1598.000000	99.067434 
1597.000000	99.076124 
1596.000000	99.084519 
1595.000000	99.090842 
1594.000000	99.094384 
1593.000000	99.096294 
1592.000000	99.098714 
1591.000000	99.102834 
1590.000000	99.108081 
1589.000000	99.113200 
1588.000000	99.117690 
1587.000000	99.121879 
1586.000000	99.126127 
1585.000000	99.130495 
1584.000000	99.135070 
1583.000000	99.139965 
1582.000000	99.145055 
1581.000000	99.150010 
1580.000000	99.154631 
1579.000000	99.158907 
1578.000000	99.162843 
1577.000000	99.166501 
1576.000000	99.170184 
1575.000000	99.174237 
1574.000000	99.178636 
1573.000000	99.183073 
1572.000000	99.187287 
1571.000000	99.191260 
1570.000000	99.195199 
1569.000000	99.199229 
1568.000000	99.203290 
1567.000000	99.207334 
1566.000000	99.211354 
1565.000000	99.215370 
1564.000000	99.219427 
1563.000000	99.223521 
1562.000000	99.227539 
1561.000000	99.231321 
1560.000000	99.234985 
1559.000000	99.239101 
1558.000000	99.243321 
1557.000000	99.246988 
1556.000000	99.250176 
1555.000000	99.253047 
1554.000000	99.255879 
1553.000000	99.258972 
1552.000000	99.262483 
1551.000000	99.266409 
1550.000000	99.270637 
1549.000000	99.274932 
1548.000000	99.279063 
1547.000000	99.282938 
1546.000000	99.286602 
1545.000000	99.290207 
1544.000000	99.293909 
1543.000000	99.297692 
1542.000000	99.301411 
1541.000000	99.305025 
1540.000000	99.308704 
1539.000000	99.312528 
1538.000000	99.316460 
1537.000000	99.320392 
1536.000000	99.324137 
1535.000000	99.327660 
1534.000000	99.331221 
1533.000000	99.335102 
1532.000000	99.339158 
1531.000000	99.343160 
1530.000000	99.347144 
1529.000000	99.351255 
1528.000000	99.355514 
1527.000000	99.359716 
1526.000000	99.363541 
1525.000000	99.366849 
1524.000000	99.369749 
1523.000000	99.372478 
1522.000000	99.375514 
1521.000000	99.379122 
1520.000000	99.382791 
1519.000000	99.386449 
1518.000000	99.390563 
1517.000000	99.395336 
1516.000000	99.400096 
1515.000000	99.404178 
1514.000000	99.407899 
1513.000000	99.411867 
1512.000000	99.416348 
1511.000000	99.421220 
1510.000000	99.426188 
1509.000000	99.430953 
1508.000000	99.434943 
1507.000000	99.437035 
1506.000000	99.436603 
1505.000000	99.437691 
1504.000000	99.442846 
1503.000000	99.449100 
1502.000000	99.452916 
1501.000000	99.453076 
1500.000000	99.451433 
1499.000000	99.451111 
1498.000000	99.453410 
1497.000000	99.457350 
1496.000000	99.461391 
1495.000000	99.464913 
1494.000000	99.467703 
1493.000000	99.468831 
1492.000000	99.467580 
1491.000000	99.465579 
1490.000000	99.466094 
1489.000000	99.470034 
1488.000000	99.475220 
1487.000000	99.480041 
1486.000000	99.484983 
1485.000000	99.490114 
1484.000000	99.494246 
1483.000000	99.496599 
1482.000000	99.497889 
1481.000000	99.498777 
1480.000000	99.497785 
1479.000000	99.492520 
1478.000000	99.483105 
1477.000000	99.473880 
1476.000000	99.470143 
1475.000000	99.472652 
1474.000000	99.477149 
1473.000000	99.478924 
1472.000000	99.477077 
1471.000000	99.474503 
1470.000000	99.473529 
1469.000000	99.473133 
1468.000000	99.470944 
1467.000000	99.466002 
1466.000000	99.459850 
1465.000000	99.455696 
1464.000000	99.454724 
1463.000000	99.454584 
1462.000000	99.452860 
1461.000000	99.449233 
1460.000000	99.445064 
1459.000000	99.442102 
1458.000000	99.441082 
1457.000000	99.439551 
1456.000000	99.433895 
1455.000000	99.426169 
1454.000000	99.420247 
1453.000000	99.417778 
1452.000000	99.418627 
1451.000000	99.420259 
1450.000000	99.419345 
1449.000000	99.415462 
1448.000000	99.411625 
1447.000000	99.410047 
1446.000000	99.408755 
1445.000000	99.404973 
1444.000000	99.398320 
1443.000000	99.390449 
1442.000000	99.383302 
1441.000000	99.377571 
1440.000000	99.372583 
1439.000000	99.366763 
1438.000000	99.359024 
1437.000000	99.350769 
1436.000000	99.344986 
1435.000000	99.342510 
1434.000000	99.342085 
1433.000000	99.342093 
1432.000000	99.341117 
1431.000000	99.338054 
1430.000000	99.332388 
1429.000000	99.325033 
1428.000000	99.318375 
1427.000000	99.314670 
1426.000000	99.314303 
1425.000000	99.316230 
1424.000000	99.318563 
1423.000000	99.319089 
1422.000000	99.317252 
1421.000000	99.315111 
1420.000000	99.316633 
1419.000000	99.324059 
1418.000000	99.333635 
1417.000000	99.341967 
1416.000000	99.349676 
1415.000000	99.356970 
1414.000000	99.363091 
1413.000000	99.367908 
1412.000000	99.371653 
1411.000000	99.374149 
1410.000000	99.376120 
1409.000000	99.380250 
1408.000000	99.388422 
1407.000000	99.398755 
1406.000000	99.407137 
1405.000000	99.411962 
1404.000000	99.415709 
1403.000000	99.421009 
1402.000000	99.427389 
1401.000000	99.432491 
1400.000000	99.434293 
1399.000000	99.432831 
1398.000000	99.431546 
1397.000000	99.435625 
1396.000000	99.446893 
1395.000000	99.460333 
1394.000000	99.467833 
1393.000000	99.467905 
1392.000000	99.466392 
1391.000000	99.467609 
1390.000000	99.470377 
1389.000000	99.471699 
1388.000000	99.471203 
1387.000000	99.471250 
1386.000000	99.473329 
1385.000000	99.476539 
1384.000000	99.479392 
1383.000000	99.481117 
1382.000000	99.481727 
1381.000000	99.481897 
1380.000000	99.482807 
1379.000000	99.485414 
1378.000000	99.489362 
1377.000000	99.492884 
1376.000000	99.494254 
1375.000000	99.493342 
1374.000000	99.491666 
1373.000000	99.490788 
1372.000000	99.490825 
1371.000000	99.491019 
1370.000000	99.491191 
1369.000000	99.491981 
1368.000000	99.493602 
1367.000000	99.495008 
1366.000000	99.494886 
1365.000000	99.492999 
1364.000000	99.490290 
1363.000000	99.488163 
1362.000000	99.487717 
1361.000000	99.489180 
1360.000000	99.491638 
1359.000000	99.493378 
1358.000000	99.493149 
1357.000000	99.491238 
1356.000000	99.489275 
1355.000000	99.488769 
1354.000000	99.489901 
1353.000000	99.491706 
1352.000000	99.492982 
1351.000000	99.493039 
1350.000000	99.491929 
1349.000000	99.490367 
1348.000000	99.489290 
1347.000000	99.489154 
1346.000000	99.489727 
1345.000000	99.490575 
1344.000000	99.491573 
1343.000000	99.492774 
1342.000000	99.493999 
1341.000000	99.494728 
1340.000000	99.494371 
1339.000000	99.492713 
1338.000000	99.490340 
1337.000000	99.488531 
1336.000000	99.488358 
1335.000000	99.489727 
1334.000000	99.491465 
1333.000000	99.492637 
1332.000000	99.493563 
1331.000000	99.495051 
1330.000000	99.496782 
1329.000000	99.497183 
1328.000000	99.495072 
1327.000000	99.491015 
1326.000000	99.487094 
1325.000000	99.485411 
1324.000000	99.486744 
1323.000000	99.490055 
1322.000000	99.493147 
1321.000000	99.494373 
1320.000000	99.493822 
1319.000000	99.492731 
1318.000000	99.492006 
1317.000000	99.491670 
1316.000000	99.491480 
1315.000000	99.491431 
1314.000000	99.491686 
1313.000000	99.492360 
1312.000000	99.493312 
1311.000000	99.494067 
1310.000000	99.494176 
1309.000000	99.493627 
1308.000000	99.492406 
1307.000000	99.489961 
1306.000000	99.486157 
1305.000000	99.482780 
1304.000000	99.482752 
1303.000000	99.487061 
1302.000000	99.493405 
1301.000000	99.498626 
1300.000000	99.501443 
1299.000000	99.501927 
1298.000000	99.499905 
1297.000000	99.495472 
1296.000000	99.490142 
1295.000000	99.485837 
1294.000000	99.483153 
1293.000000	99.481833 
1292.000000	99.481976 
1291.000000	99.483082 
1290.000000	99.482752 
1289.000000	99.478489 
1288.000000	99.470722 
1287.000000	99.462532 
1286.000000	99.456514 
1285.000000	99.453227 
1284.000000	99.452000 
1283.000000	99.451252 
1282.000000	99.448564 
1281.000000	99.442953 
1280.000000	99.437309 
1279.000000	99.436547 
1278.000000	99.442684 
1277.000000	99.452895 
1276.000000	99.462330 
1275.000000	99.467711 
1274.000000	99.468687 
1273.000000	99.467310 
1272.000000	99.466080 
1271.000000	99.465392 
1270.000000	99.463677 
1269.000000	99.461258 
1268.000000	99.462326 
1267.000000	99.470554 
1266.000000	99.483879 
1265.000000	99.496406 
1264.000000	99.504466 
1263.000000	99.507801 
1262.000000	99.506354 
1261.000000	99.500241 
1260.000000	99.492708 
1259.000000	99.488668 
1258.000000	99.489126 
1257.000000	99.490576 
1256.000000	99.490593 
1255.000000	99.490287 
1254.000000	99.490301 
1253.000000	99.488225 
1252.000000	99.482193 
1251.000000	99.474238 
1250.000000	99.467670 
1249.000000	99.462866 
1248.000000	99.457662 
1247.000000	99.450558 
1246.000000	99.441867 
1245.000000	99.432633 
1244.000000	99.423295 
1243.000000	99.412810 
1242.000000	99.399456 
1241.000000	99.384064 
1240.000000	99.371629 
1239.000000	99.366549 
1238.000000	99.365993 
1237.000000	99.361551 
1236.000000	99.348744 
1235.000000	99.331877 
1234.000000	99.317854 
1233.000000	99.307449 
1232.000000	99.295023 
1231.000000	99.275508 
1230.000000	99.249767 
1229.000000	99.223479 
1228.000000	99.201249 
1227.000000	99.181379 
1226.000000	99.156968 
1225.000000	99.122961 
1224.000000	99.080502 
1223.000000	99.032799 
1222.000000	98.979493 
1221.000000	98.919195 
1220.000000	98.855553 
1219.000000	98.794595 
1218.000000	98.735815 
1217.000000	98.672507 
1216.000000	98.602815 
1215.000000	98.533944 
1214.000000	98.471883 
1213.000000	98.412274 
1212.000000	98.346311 
1211.000000	98.271673 
1210.000000	98.193116 
1209.000000	98.115199 
1208.000000	98.038833 
1207.000000	97.962990 
1206.000000	97.886177 
1205.000000	97.807659 
1204.000000	97.729241 
1203.000000	97.653574 
1202.000000	97.579301 
1201.000000	97.501484 
1200.000000	97.419312 
1199.000000	97.339927 
1198.000000	97.271209 
1197.000000	97.212976 
1196.000000	97.157543 
1195.000000	97.096491 
1194.000000	97.025431 
1193.000000	96.945634 
1192.000000	96.863831 
1191.000000	96.788242 
1190.000000	96.721896 
1189.000000	96.660482 
1188.000000	96.597207 
1187.000000	96.527836 
1186.000000	96.451461 
1185.000000	96.370135 
1184.000000	96.288689 
1183.000000	96.211313 
1182.000000	96.136717 
1181.000000	96.059372 
1180.000000	95.976112 
1179.000000	95.888292 
1178.000000	95.797268 
1177.000000	95.701957 
1176.000000	95.601747 
1175.000000	95.497857 
1174.000000	95.391001 
1173.000000	95.281489 
1172.000000	95.171647 
1171.000000	95.063330 
1170.000000	94.953013 
1169.000000	94.835222 
1168.000000	94.711826 
1167.000000	94.592688 
1166.000000	94.487252 
1165.000000	94.402221 
1164.000000	94.347310 
1163.000000	94.333782 
1162.000000	94.363285 
1161.000000	94.423437 
1160.000000	94.495763 
1159.000000	94.562460 
1158.000000	94.606512 
1157.000000	94.615097 
1156.000000	94.586885 
1155.000000	94.531375 
1154.000000	94.459419 
1153.000000	94.378037 
1152.000000	94.292884 
1151.000000	94.207414 
1150.000000	94.118427 
1149.000000	94.020670 
1148.000000	93.917501 
1147.000000	93.818991 
1146.000000	93.727984 
1145.000000	93.636993 
1144.000000	93.540872 
1143.000000	93.442661 
1142.000000	93.344150 
1141.000000	93.240834 
1140.000000	93.130618 
1139.000000	93.018513 
1138.000000	92.908309 
1137.000000	92.797996 
1136.000000	92.687100 
1135.000000	92.579254 
1134.000000	92.473307 
1133.000000	92.361297 
1132.000000	92.239984 
1131.000000	92.115857 
1130.000000	91.994914 
1129.000000	91.876736 
1128.000000	91.762065 
1127.000000	91.654809 
1126.000000	91.551218 
1125.000000	91.438341 
1124.000000	91.310184 
1123.000000	91.176074 
1122.000000	91.047226 
1121.000000	90.924975 
1120.000000	90.808277 
1119.000000	90.701027 
1118.000000	90.603134 
1117.000000	90.504207 
1116.000000	90.395257 
1115.000000	90.279720 
1114.000000	90.165978 
1113.000000	90.056388 
1112.000000	89.949847 
1111.000000	89.846990 
1110.000000	89.746924 
1109.000000	89.646455 
1108.000000	89.546578 
1107.000000	89.450765 
1106.000000	89.354372 
1105.000000	89.247796 
1104.000000	89.134171 
1103.000000	89.030066 
1102.000000	88.942193 
1101.000000	88.856742 
1100.000000	88.759395 
1099.000000	88.652613 
1098.000000	88.544681 
1097.000000	88.434325 
1096.000000	88.318077 
1095.000000	88.203236 
1094.000000	88.101664 
1093.000000	88.016336 
1092.000000	87.941684 
1091.000000	87.870923 
1090.000000	87.797577 
1089.000000	87.717424 
1088.000000	87.634333 
1087.000000	87.557232 
1086.000000	87.488010 
1085.000000	87.420246 
1084.000000	87.351460 
1083.000000	87.286258 
1082.000000	87.225733 
1081.000000	87.165662 
1080.000000	87.107317 
1079.000000	87.056938 
1078.000000	87.011836 
1077.000000	86.960919 
1076.000000	86.901985 
1075.000000	86.843213 
1074.000000	86.783149 
1073.000000	86.705060 
1072.000000	86.597958 
1071.000000	86.469459 
1070.000000	86.331785 
1069.000000	86.186661 
1068.000000	86.029370 
1067.000000	85.855798 
1066.000000	85.661008 
1065.000000	85.443944 
1064.000000	85.218413 
1063.000000	85.006252 
1062.000000	84.814728 
1061.000000	84.633966 
1060.000000	84.458945 
1059.000000	84.296567 
1058.000000	84.146433 
1057.000000	83.993473 
1056.000000	83.828065 
1055.000000	83.657421 
1054.000000	83.489410 
1053.000000	83.320530 
1052.000000	83.148030 
1051.000000	82.977663 
1050.000000	82.809361 
1049.000000	82.631163 
1048.000000	82.436581 
1047.000000	82.232103 
1046.000000	82.022007 
1045.000000	81.803220 
1044.000000	81.579324 
1043.000000	81.361362 
1042.000000	81.149604 
1041.000000	80.931884 
1040.000000	80.705563 
1039.000000	80.483994 
1038.000000	80.276271 
1037.000000	80.079064 
1036.000000	79.893241 
1035.000000	79.727935 
1034.000000	79.581224 
1033.000000	79.437560 
1032.000000	79.293334 
1031.000000	79.166048 
1030.000000	79.069072 
1029.000000	78.995030 
1028.000000	78.931687 
1027.000000	78.876697 
1026.000000	78.828265 
1025.000000	78.778234 
1024.000000	78.723332 
1023.000000	78.669237 
1022.000000	78.617944 
1021.000000	78.565468 
1020.000000	78.515089 
1019.000000	78.476333 
1018.000000	78.447464 
1017.000000	78.415465 
1016.000000	78.375354 
1015.000000	78.331968 
1014.000000	78.282031 
1013.000000	78.215448 
1012.000000	78.137537 
1011.000000	78.069093 
1010.000000	78.019842 
1009.000000	77.981201 
1008.000000	77.948108 
1007.000000	77.926483 
1006.000000	77.914665 
1005.000000	77.899470 
1004.000000	77.877637 
1003.000000	77.862024 
1002.000000	77.860969 
1001.000000	77.870133 
1000.000000	77.888216 
999.000000	 77.920143 
998.000000	 77.960165 
997.000000	 77.992983 
996.000000	 78.017696 
995.000000	 78.050766 
994.000000	 78.099777 
993.000000	 78.153941 
992.000000	 78.205315 
991.000000	 78.259336 
990.000000	 78.319018 
989.000000	 78.379269 
988.000000	 78.443030 
987.000000	 78.523017 
986.000000	 78.620897 
985.000000	 78.723907 
984.000000	 78.827963 
983.000000	 78.944771 
982.000000	 79.080065 
981.000000	 79.224853 
980.000000	 79.375414 
979.000000	 79.542826 
978.000000	 79.734363 
977.000000	 79.942628 
976.000000	 80.160264 
975.000000	 80.389144 
974.000000	 80.628529 
973.000000	 80.870327 
972.000000	 81.113021 
971.000000	 81.365537 
970.000000	 81.631184 
969.000000	 81.901307 
968.000000	 82.169448 
967.000000	 82.438012 
966.000000	 82.706887 
965.000000	 82.969332 
964.000000	 83.223346 
963.000000	 83.474166 
962.000000	 83.722080 
961.000000	 83.960604 
960.000000	 84.189900 
959.000000	 84.419569 
958.000000	 84.654982 
957.000000	 84.891600 
956.000000	 85.123575 
955.000000	 85.345737 
954.000000	 85.547223 
953.000000	 85.717662 
952.000000	 85.861783 
951.000000	 85.995669 
950.000000	 86.127286 
949.000000	 86.253053 
948.000000	 86.373600 
947.000000	 86.497149 
946.000000	 86.624709 
945.000000	 86.746635 
944.000000	 86.857312 
943.000000	 86.959874 
942.000000	 87.054169 
941.000000	 87.134556 
940.000000	 87.203193 
939.000000	 87.271563 
938.000000	 87.344503 
937.000000	 87.415701 
936.000000	 87.483068 
935.000000	 87.555117 
934.000000	 87.637244 
933.000000	 87.724120 
932.000000	 87.810401 
931.000000	 87.897101 
930.000000	 87.983212 
929.000000	 88.062954 
928.000000	 88.136093 
927.000000	 88.210528 
926.000000	 88.290680 
925.000000	 88.372298 
924.000000	 88.449978 
923.000000	 88.519574 
922.000000	 88.574294 
921.000000	 88.612300 
920.000000	 88.648506 
919.000000	 88.702986 
918.000000	 88.774553 
917.000000	 88.840680 
916.000000	 88.887894 
915.000000	 88.928235 
914.000000	 88.981292 
913.000000	 89.055612 
912.000000	 89.153410 
911.000000	 89.277187 
910.000000	 89.422792 
909.000000	 89.578946 
908.000000	 89.742153 
907.000000	 89.921069 
906.000000	 90.119923 
905.000000	 90.329725 
904.000000	 90.542601 
903.000000	 90.763142 
902.000000	 90.997306 
901.000000	 91.239621 
900.000000	 91.479348 
899.000000	 91.712287 
898.000000	 91.940178 
897.000000	 92.164099 
896.000000	 92.383760 
895.000000	 92.598983 
894.000000	 92.808409 
893.000000	 93.010129 
892.000000	 93.204612 
891.000000	 93.393013 
890.000000	 93.572959 
889.000000	 93.740582 
888.000000	 93.895293 
887.000000	 94.037999 
886.000000	 94.168471 
885.000000	 94.291581 
884.000000	 94.421699 
883.000000	 94.570322 
882.000000	 94.730988 
881.000000	 94.886727 
880.000000	 95.030339 
879.000000	 95.166315 
878.000000	 95.296782 
877.000000	 95.421752 
876.000000	 95.553034 
875.000000	 95.709134 
874.000000	 95.890255 
873.000000	 96.073189 
872.000000	 96.237594 
871.000000	 96.384874 
870.000000	 96.526231 
869.000000	 96.665134 
868.000000	 96.799650 
867.000000	 96.932218 
866.000000	 97.068020 
865.000000	 97.209277 
864.000000	 97.357047 
863.000000	 97.512871 
862.000000	 97.672982 
861.000000	 97.825886 
860.000000	 97.961147 
859.000000	 98.077192 
858.000000	 98.177499 
857.000000	 98.264261 
856.000000	 98.340395 
855.000000	 98.412904 
854.000000	 98.488025 
853.000000	 98.565660 
852.000000	 98.643664 
851.000000	 98.724218 
850.000000	 98.809081 
849.000000	 98.889689 
848.000000	 98.949325 
847.000000	 98.978454 
846.000000	 98.985235 
845.000000	 98.987880 
844.000000	 98.997335 
843.000000	 99.009409 
842.000000	 99.013115 
841.000000	 99.003065 
840.000000	 98.980316 
839.000000	 98.942686 
838.000000	 98.881010 
837.000000	 98.789462 
836.000000	 98.676741 
835.000000	 98.562780 
834.000000	 98.465263 
833.000000	 98.392048 
832.000000	 98.343595 
831.000000	 98.316317 
830.000000	 98.304404 
829.000000	 98.304877 
828.000000	 98.320354 
827.000000	 98.350650 
826.000000	 98.384608 
825.000000	 98.410552 
824.000000	 98.433323 
823.000000	 98.467601 
822.000000	 98.512787 
821.000000	 98.548286 
820.000000	 98.556877 
819.000000	 98.541012 
818.000000	 98.512401 
817.000000	 98.473857 
816.000000	 98.415604 
815.000000	 98.324022 
814.000000	 98.189987 
813.000000	 98.010645 
812.000000	 97.784789 
811.000000	 97.506288 
810.000000	 97.164907 
809.000000	 96.758178 
808.000000	 96.299880 
807.000000	 95.808924 
806.000000	 95.290457 
805.000000	 94.739061 
804.000000	 94.163834 
803.000000	 93.598702 
802.000000	 93.081668 
801.000000	 92.633974 
800.000000	 92.264687 
799.000000	 91.981975 
798.000000	 91.790992 
797.000000	 91.691106 
796.000000	 91.681497 
795.000000	 91.758920 
794.000000	 91.905423 
793.000000	 92.089053 
792.000000	 92.280138 
791.000000	 92.457526 
790.000000	 92.600515 
789.000000	 92.690078 
788.000000	 92.721336 
787.000000	 92.701671 
786.000000	 92.632102 
785.000000	 92.502846 
784.000000	 92.313544 
783.000000	 92.087332 
782.000000	 91.858058 
781.000000	 91.652388 
780.000000	 91.489660 
779.000000	 91.387215 
778.000000	 91.356033 
777.000000	 91.397695 
776.000000	 91.510081 
775.000000	 91.687821 
774.000000	 91.914685 
773.000000	 92.166130 
772.000000	 92.423222 
771.000000	 92.675877 
770.000000	 92.912673 
769.000000	 93.119882 
768.000000	 93.293619 
767.000000	 93.441668 
766.000000	 93.568602 
765.000000	 93.668521 
764.000000	 93.737615 
763.000000	 93.785585 
762.000000	 93.829040 
761.000000	 93.880095 
760.000000	 93.945411 
759.000000	 94.028239 
758.000000	 94.124915 
757.000000	 94.224594 
756.000000	 94.317544 
755.000000	 94.400936 
754.000000	 94.476286 
753.000000	 94.547878 
752.000000	 94.624945 
751.000000	 94.717177 
750.000000	 94.824147 
749.000000	 94.935653 
748.000000	 95.045143 
747.000000	 95.155722 
746.000000	 95.270858 
745.000000	 95.388213 
744.000000	 95.507855 
743.000000	 95.638378 
742.000000	 95.786641 
741.000000	 95.945429 
740.000000	 96.098485 
739.000000	 96.235656 
738.000000	 96.358368 
737.000000	 96.473215 
736.000000	 96.585600 
735.000000	 96.698768 
734.000000	 96.813067 
733.000000	 96.923149 
732.000000	 97.019098 
731.000000	 97.094083 
730.000000	 97.150135 
729.000000	 97.192912 
728.000000	 97.225852 
727.000000	 97.253215 
726.000000	 97.284052 
725.000000	 97.328975 
724.000000	 97.389917 
723.000000	 97.456230 
722.000000	 97.517002 
721.000000	 97.577137 
720.000000	 97.654290 
719.000000	 97.755882 
718.000000	 97.865597 
717.000000	 97.959203 
716.000000	 98.026606 
715.000000	 98.073485 
714.000000	 98.109236 
713.000000	 98.140603 
712.000000	 98.172997 
711.000000	 98.206218 
710.000000	 98.230068 
709.000000	 98.232987 
708.000000	 98.215956 
707.000000	 98.193971 
706.000000	 98.174388 
705.000000	 98.141722 
704.000000	 98.071417 
703.000000	 97.951302 
702.000000	 97.787421 
701.000000	 97.590078 
700.000000	 97.355483 
699.000000	 97.070435 
698.000000	 96.737075 
697.000000	 96.396249 
696.000000	 96.119085 
695.000000	 95.960639 
694.000000	 95.929156 
693.000000	 95.998507 
692.000000	 96.137320 
691.000000	 96.324963 
690.000000	 96.542650 
689.000000	 96.765674 
688.000000	 96.968564 
687.000000	 97.132659 
686.000000	 97.256410 
685.000000	 97.356055 
684.000000	 97.451268 
683.000000	 97.554755 
682.000000	 97.673758 
681.000000	 97.811564 
680.000000	 97.957226 
679.000000	 98.084206 
678.000000	 98.173442 
677.000000	 98.226867 
676.000000	 98.264043 
675.000000	 98.311034 
674.000000	 98.381225 
673.000000	 98.473531 
672.000000	 98.593840 
671.000000	 98.762275 
670.000000	 98.992596 
669.000000	 99.241995 
668.000000	 99.367027 
667.000000	 99.308758 
666.000000	 99.214391 
665.000000	 99.164871 
664.000000	 99.162951 
663.000000	 99.205722 
662.000000	 99.275237 
661.000000	 99.330232 
660.000000	 99.345956 
659.000000	 99.341243 
658.000000	 99.347918 
657.000000	 99.365741 
656.000000	 99.382020 
655.000000	 99.407620 
654.000000	 99.445640 
653.000000	 99.468185 
652.000000	 99.465339 
651.000000	 99.469436 
650.000000	 99.498541 

