PE IR                   SPECTRUM    ASCII       PEDS        1.60        
  -1
~SP.SP
22/12/06
15:11:02.00
23/01/09
14:44:47.00
Administrator

650.000000
4









FRONTIER FT-IR,CPU32 MAIN 00.09.9951 07-SEPTEMBER-2011 11:49:41
MIR TGS
MIR
OPTKBR
90694
0.200000

4.000000
STRONG
RATIO
SPECTRUM
MAGNITUDE
MIRACLE ATR
DOUBLE

COMBINED


0


#HDR
-1
-1
#GR
CM-1
%T
0.00002384185791015625
0.0
4000.000000
-1.000000
3351
8
91.486976
78.009990
#DATA
4000.000000	91.450119 
3999.000000	91.448253 
3998.000000	91.448150 
3997.000000	91.449619 
3996.000000	91.452043 
3995.000000	91.454286 
3994.000000	91.455064 
3993.000000	91.453903 
3992.000000	91.451647 
3991.000000	91.449477 
3990.000000	91.447628 
3989.000000	91.445341 
3988.000000	91.442146 
3987.000000	91.439109 
3986.000000	91.438458 
3985.000000	91.441792 
3984.000000	91.448483 
3983.000000	91.455654 
3982.000000	91.460089 
3981.000000	91.460273 
3980.000000	91.456857 
3979.000000	91.451651 
3978.000000	91.446091 
3977.000000	91.440503 
3976.000000	91.434712 
3975.000000	91.429211 
3974.000000	91.425522 
3973.000000	91.425030 
3972.000000	91.427449 
3971.000000	91.430908 
3970.000000	91.433829 
3969.000000	91.436452 
3968.000000	91.440074 
3967.000000	91.445103 
3966.000000	91.450366 
3965.000000	91.454261 
3964.000000	91.456121 
3963.000000	91.456302 
3962.000000	91.455436 
3961.000000	91.453956 
3960.000000	91.452070 
3959.000000	91.449653 
3958.000000	91.446176 
3957.000000	91.441354 
3956.000000	91.436165 
3955.000000	91.432875 
3954.000000	91.433334 
3953.000000	91.437248 
3952.000000	91.442070 
3951.000000	91.444880 
3950.000000	91.444857 
3949.000000	91.443583 
3948.000000	91.443166 
3947.000000	91.444150 
3946.000000	91.445404 
3945.000000	91.445557 
3944.000000	91.444267 
3943.000000	91.442370 
3942.000000	91.441110 
3941.000000	91.441078 
3940.000000	91.441878 
3939.000000	91.442559 
3938.000000	91.442320 
3937.000000	91.441125 
3936.000000	91.439679 
3935.000000	91.438840 
3934.000000	91.438899 
3933.000000	91.439445 
3932.000000	91.439825 
3931.000000	91.439715 
3930.000000	91.439238 
3929.000000	91.438673 
3928.000000	91.438186 
3927.000000	91.437794 
3926.000000	91.437472 
3925.000000	91.437238 
3924.000000	91.437107 
3923.000000	91.437007 
3922.000000	91.436823 
3921.000000	91.436505 
3920.000000	91.436080 
3919.000000	91.435589 
3918.000000	91.435048 
3917.000000	91.434440 
3916.000000	91.433746 
3915.000000	91.433012 
3914.000000	91.432356 
3913.000000	91.431875 
3912.000000	91.431574 
3911.000000	91.431350 
3910.000000	91.431037 
3909.000000	91.430534 
3908.000000	91.429820 
3907.000000	91.428934 
3906.000000	91.427957 
3905.000000	91.426964 
3904.000000	91.426038 
3903.000000	91.425205 
3902.000000	91.424427 
3901.000000	91.423653 
3900.000000	91.422860 
3899.000000	91.422049 
3898.000000	91.421231 
3897.000000	91.420412 
3896.000000	91.419596 
3895.000000	91.418785 
3894.000000	91.417987 
3893.000000	91.417242 
3892.000000	91.416614 
3891.000000	91.416057 
3890.000000	91.415351 
3889.000000	91.414326 
3888.000000	91.413062 
3887.000000	91.411854 
3886.000000	91.410901 
3885.000000	91.410150 
3884.000000	91.409400 
3883.000000	91.408648 
3882.000000	91.408160 
3881.000000	91.408026 
3880.000000	91.407822 
3879.000000	91.407005 
3878.000000	91.405556 
3877.000000	91.404061 
3876.000000	91.402996 
3875.000000	91.402222 
3874.000000	91.401280 
3873.000000	91.399998 
3872.000000	91.398620 
3871.000000	91.397378 
3870.000000	91.396167 
3869.000000	91.394852 
3868.000000	91.393694 
3867.000000	91.393219 
3866.000000	91.393409 
3865.000000	91.393287 
3864.000000	91.391962 
3863.000000	91.389770 
3862.000000	91.387918 
3861.000000	91.387128 
3860.000000	91.387032 
3859.000000	91.386875 
3858.000000	91.386643 
3857.000000	91.387102 
3856.000000	91.388580 
3855.000000	91.389998 
3854.000000	91.390156 
3853.000000	91.389555 
3852.000000	91.388545 
3851.000000	91.386338 
3850.000000	91.383339 
3849.000000	91.380796 
3848.000000	91.379251 
3847.000000	91.378385 
3846.000000	91.377559 
3845.000000	91.376356 
3844.000000	91.374819 
3843.000000	91.373335 
3842.000000	91.372309 
3841.000000	91.371834 
3840.000000	91.371651 
3839.000000	91.371467 
3838.000000	91.371163 
3837.000000	91.370593 
3836.000000	91.369476 
3835.000000	91.367768 
3834.000000	91.365977 
3833.000000	91.364908 
3832.000000	91.364932 
3831.000000	91.365702 
3830.000000	91.366424 
3829.000000	91.366579 
3828.000000	91.366257 
3827.000000	91.365836 
3826.000000	91.365543 
3825.000000	91.365311 
3824.000000	91.364997 
3823.000000	91.364593 
3822.000000	91.364190 
3821.000000	91.363794 
3820.000000	91.363219 
3819.000000	91.362431 
3818.000000	91.361942 
3817.000000	91.362241 
3816.000000	91.363211 
3815.000000	91.364209 
3814.000000	91.364711 
3813.000000	91.364774 
3812.000000	91.364727 
3811.000000	91.364750 
3810.000000	91.364762 
3809.000000	91.364660 
3808.000000	91.364561 
3807.000000	91.364702 
3806.000000	91.365085 
3805.000000	91.365415 
3804.000000	91.365502 
3803.000000	91.365488 
3802.000000	91.365635 
3801.000000	91.365978 
3800.000000	91.366188 
3799.000000	91.365975 
3798.000000	91.365572 
3797.000000	91.365530 
3796.000000	91.366154 
3795.000000	91.367291 
3794.000000	91.368477 
3793.000000	91.369301 
3792.000000	91.369655 
3791.000000	91.369729 
3790.000000	91.369751 
3789.000000	91.369739 
3788.000000	91.369549 
3787.000000	91.369170 
3786.000000	91.368856 
3785.000000	91.368758 
3784.000000	91.368516 
3783.000000	91.367575 
3782.000000	91.365898 
3781.000000	91.364142 
3780.000000	91.363127 
3779.000000	91.363091 
3778.000000	91.363557 
3777.000000	91.363886 
3776.000000	91.363851 
3775.000000	91.363497 
3774.000000	91.362825 
3773.000000	91.361864 
3772.000000	91.360755 
3771.000000	91.359642 
3770.000000	91.358585 
3769.000000	91.357604 
3768.000000	91.356869 
3767.000000	91.356729 
3766.000000	91.357267 
3765.000000	91.357865 
3764.000000	91.357616 
3763.000000	91.356113 
3762.000000	91.353664 
3761.000000	91.350958 
3760.000000	91.348686 
3759.000000	91.347246 
3758.000000	91.346424 
3757.000000	91.345589 
3756.000000	91.344441 
3755.000000	91.343226 
3754.000000	91.342170 
3753.000000	91.341030 
3752.000000	91.339647 
3751.000000	91.338830 
3750.000000	91.339420 
3749.000000	91.340672 
3748.000000	91.341467 
3747.000000	91.341776 
3746.000000	91.341309 
3745.000000	91.338866 
3744.000000	91.334415 
3743.000000	91.329024 
3742.000000	91.323476 
3741.000000	91.319487 
3740.000000	91.318593 
3739.000000	91.319753 
3738.000000	91.320023 
3737.000000	91.318038 
3736.000000	91.315988 
3735.000000	91.316727 
3734.000000	91.319898 
3733.000000	91.322817 
3732.000000	91.323719 
3731.000000	91.322073 
3730.000000	91.317938 
3729.000000	91.312422 
3728.000000	91.307566 
3727.000000	91.304973 
3726.000000	91.304783 
3725.000000	91.306256 
3724.000000	91.309081 
3723.000000	91.313319 
3722.000000	91.317988 
3721.000000	91.320973 
3720.000000	91.320953 
3719.000000	91.318317 
3718.000000	91.313832 
3717.000000	91.307862 
3716.000000	91.301359 
3715.000000	91.295653 
3714.000000	91.290468 
3713.000000	91.283560 
3712.000000	91.273701 
3711.000000	91.263393 
3710.000000	91.256032 
3709.000000	91.253039 
3708.000000	91.254394 
3707.000000	91.259231 
3706.000000	91.266343 
3705.000000	91.274368 
3704.000000	91.281923 
3703.000000	91.287026 
3702.000000	91.287392 
3701.000000	91.281995 
3700.000000	91.272684 
3699.000000	91.264012 
3698.000000	91.260135 
3697.000000	91.261128 
3696.000000	91.262923 
3695.000000	91.260988 
3694.000000	91.254284 
3693.000000	91.246337 
3692.000000	91.242577 
3691.000000	91.246826 
3690.000000	91.258000 
3689.000000	91.269566 
3688.000000	91.274062 
3687.000000	91.269564 
3686.000000	91.260730 
3685.000000	91.253301 
3684.000000	91.248600 
3683.000000	91.243087 
3682.000000	91.232947 
3681.000000	91.218415 
3680.000000	91.203588 
3679.000000	91.192264 
3678.000000	91.185092 
3677.000000	91.180025 
3676.000000	91.175555 
3675.000000	91.171720 
3674.000000	91.166735 
3673.000000	91.159933 
3672.000000	91.154700 
3671.000000	91.152343 
3670.000000	91.149745 
3669.000000	91.144217 
3668.000000	91.135920 
3667.000000	91.127684 
3666.000000	91.121979 
3665.000000	91.117361 
3664.000000	91.110391 
3663.000000	91.100083 
3662.000000	91.088663 
3661.000000	91.078706 
3660.000000	91.070903 
3659.000000	91.064397 
3658.000000	91.057934 
3657.000000	91.049763 
3656.000000	91.037706 
3655.000000	91.020303 
3654.000000	90.999275 
3653.000000	90.979484 
3652.000000	90.963676 
3651.000000	90.948674 
3650.000000	90.931151 
3649.000000	90.915956 
3648.000000	90.909641 
3647.000000	90.910136 
3646.000000	90.910727 
3645.000000	90.908272 
3644.000000	90.904315 
3643.000000	90.901117 
3642.000000	90.898014 
3641.000000	90.891828 
3640.000000	90.880652 
3639.000000	90.866519 
3638.000000	90.853588 
3637.000000	90.844092 
3636.000000	90.837482 
3635.000000	90.832375 
3634.000000	90.827884 
3633.000000	90.822702 
3632.000000	90.814473 
3631.000000	90.801212 
3630.000000	90.784747 
3629.000000	90.773149 
3628.000000	90.771636 
3627.000000	90.773763 
3626.000000	90.773955 
3625.000000	90.775257 
3624.000000	90.780862 
3623.000000	90.789810 
3622.000000	90.799410 
3621.000000	90.807779 
3620.000000	90.814150 
3619.000000	90.817872 
3618.000000	90.816973 
3617.000000	90.809671 
3616.000000	90.797895 
3615.000000	90.786391 
3614.000000	90.779264 
3613.000000	90.777934 
3612.000000	90.780759 
3611.000000	90.784890 
3610.000000	90.788442 
3609.000000	90.791351 
3608.000000	90.794359 
3607.000000	90.797394 
3606.000000	90.800047 
3605.000000	90.802613 
3604.000000	90.805451 
3603.000000	90.807750 
3602.000000	90.808931 
3601.000000	90.810063 
3600.000000	90.812625 
3599.000000	90.816582 
3598.000000	90.820369 
3597.000000	90.822899 
3596.000000	90.824731 
3595.000000	90.827324 
3594.000000	90.831424 
3593.000000	90.836111 
3592.000000	90.839540 
3591.000000	90.841035 
3590.000000	90.841306 
3589.000000	90.841755 
3588.000000	90.843237 
3587.000000	90.844120 
3586.000000	90.840952 
3585.000000	90.833309 
3584.000000	90.825692 
3583.000000	90.822507 
3582.000000	90.824131 
3581.000000	90.827618 
3580.000000	90.829529 
3579.000000	90.828025 
3578.000000	90.823280 
3577.000000	90.816959 
3576.000000	90.810945 
3575.000000	90.806034 
3574.000000	90.801308 
3573.000000	90.795563 
3572.000000	90.789018 
3571.000000	90.783629 
3570.000000	90.781354 
3569.000000	90.782501 
3568.000000	90.785721 
3567.000000	90.788833 
3566.000000	90.789209 
3565.000000	90.785252 
3564.000000	90.778444 
3563.000000	90.772486 
3562.000000	90.770092 
3561.000000	90.771159 
3560.000000	90.773348 
3559.000000	90.774358 
3558.000000	90.773683 
3557.000000	90.772136 
3556.000000	90.770356 
3555.000000	90.768401 
3554.000000	90.766353 
3553.000000	90.764546 
3552.000000	90.762999 
3551.000000	90.761216 
3550.000000	90.758894 
3549.000000	90.756363 
3548.000000	90.754119 
3547.000000	90.752218 
3546.000000	90.750277 
3545.000000	90.747994 
3544.000000	90.745508 
3543.000000	90.743200 
3542.000000	90.741221 
3541.000000	90.739332 
3540.000000	90.737186 
3539.000000	90.734761 
3538.000000	90.732376 
3537.000000	90.730325 
3536.000000	90.728600 
3535.000000	90.726952 
3534.000000	90.725136 
3533.000000	90.723115 
3532.000000	90.721022 
3531.000000	90.719017 
3530.000000	90.717189 
3529.000000	90.715527 
3528.000000	90.713899 
3527.000000	90.712100 
3526.000000	90.710036 
3525.000000	90.707863 
3524.000000	90.705843 
3523.000000	90.703994 
3522.000000	90.702028 
3521.000000	90.699745 
3520.000000	90.697349 
3519.000000	90.695272 
3518.000000	90.693707 
3517.000000	90.692312 
3516.000000	90.690398 
3515.000000	90.687506 
3514.000000	90.683722 
3513.000000	90.679637 
3512.000000	90.675952 
3511.000000	90.673024 
3510.000000	90.670768 
3509.000000	90.668838 
3508.000000	90.666957 
3507.000000	90.665104 
3506.000000	90.663414 
3505.000000	90.661956 
3504.000000	90.660562 
3503.000000	90.658850 
3502.000000	90.656487 
3501.000000	90.653505 
3500.000000	90.650392 
3499.000000	90.647742 
3498.000000	90.645753 
3497.000000	90.644027 
3496.000000	90.641883 
3495.000000	90.638958 
3494.000000	90.635453 
3493.000000	90.631862 
3492.000000	90.628490 
3491.000000	90.625392 
3490.000000	90.622644 
3489.000000	90.620366 
3488.000000	90.618385 
3487.000000	90.616097 
3486.000000	90.612944 
3485.000000	90.609020 
3484.000000	90.605090 
3483.000000	90.601913 
3482.000000	90.599570 
3481.000000	90.597458 
3480.000000	90.594931 
3479.000000	90.591949 
3478.000000	90.589105 
3477.000000	90.587068 
3476.000000	90.586001 
3475.000000	90.585381 
3474.000000	90.584259 
3473.000000	90.581675 
3472.000000	90.577220 
3471.000000	90.571532 
3470.000000	90.566083 
3469.000000	90.562153 
3468.000000	90.559861 
3467.000000	90.558206 
3466.000000	90.556135 
3465.000000	90.553341 
3464.000000	90.550076 
3463.000000	90.546608 
3462.000000	90.543016 
3461.000000	90.539191 
3460.000000	90.534825 
3459.000000	90.529674 
3458.000000	90.524059 
3457.000000	90.518882 
3456.000000	90.514929 
3455.000000	90.512272 
3454.000000	90.510675 
3453.000000	90.510290 
3452.000000	90.511329 
3451.000000	90.513206 
3450.000000	90.514559 
3449.000000	90.514260 
3448.000000	90.512239 
3447.000000	90.509288 
3446.000000	90.506301 
3445.000000	90.503918 
3444.000000	90.502638 
3443.000000	90.502701 
3442.000000	90.503674 
3441.000000	90.504499 
3440.000000	90.504281 
3439.000000	90.503082 
3438.000000	90.501751 
3437.000000	90.500878 
3436.000000	90.500149 
3435.000000	90.498888 
3434.000000	90.496997 
3433.000000	90.494962 
3432.000000	90.493083 
3431.000000	90.491212 
3430.000000	90.489409 
3429.000000	90.488280 
3428.000000	90.488169 
3427.000000	90.488262 
3426.000000	90.487040 
3425.000000	90.483758 
3424.000000	90.479257 
3423.000000	90.475397 
3422.000000	90.473549 
3421.000000	90.473697 
3420.000000	90.474662 
3419.000000	90.475072 
3418.000000	90.474508 
3417.000000	90.473776 
3416.000000	90.474012 
3415.000000	90.475452 
3414.000000	90.477090 
3413.000000	90.477608 
3412.000000	90.476654 
3411.000000	90.475044 
3410.000000	90.473807 
3409.000000	90.473136 
3408.000000	90.472474 
3407.000000	90.471349 
3406.000000	90.469766 
3405.000000	90.467925 
3404.000000	90.466056 
3403.000000	90.464570 
3402.000000	90.463868 
3401.000000	90.463752 
3400.000000	90.463475 
3399.000000	90.462694 
3398.000000	90.462030 
3397.000000	90.462238 
3396.000000	90.463040 
3395.000000	90.463284 
3394.000000	90.462190 
3393.000000	90.460038 
3392.000000	90.457774 
3391.000000	90.456195 
3390.000000	90.455400 
3389.000000	90.454700 
3388.000000	90.453189 
3387.000000	90.450818 
3386.000000	90.448753 
3385.000000	90.448102 
3384.000000	90.448565 
3383.000000	90.448937 
3382.000000	90.448761 
3381.000000	90.448585 
3380.000000	90.448697 
3379.000000	90.448741 
3378.000000	90.448901 
3377.000000	90.450337 
3376.000000	90.453652 
3375.000000	90.457603 
3374.000000	90.460171 
3373.000000	90.460742 
3372.000000	90.460313 
3371.000000	90.459935 
3370.000000	90.459585 
3369.000000	90.458760 
3368.000000	90.457508 
3367.000000	90.456406 
3366.000000	90.455891 
3365.000000	90.456004 
3364.000000	90.456656 
3363.000000	90.457766 
3362.000000	90.459098 
3361.000000	90.460246 
3360.000000	90.460935 
3359.000000	90.461233 
3358.000000	90.461383 
3357.000000	90.461554 
3356.000000	90.461820 
3355.000000	90.462278 
3354.000000	90.463022 
3353.000000	90.463992 
3352.000000	90.464972 
3351.000000	90.465778 
3350.000000	90.466394 
3349.000000	90.466904 
3348.000000	90.467365 
3347.000000	90.467813 
3346.000000	90.468332 
3345.000000	90.469033 
3344.000000	90.469943 
3343.000000	90.470971 
3342.000000	90.471958 
3341.000000	90.472756 
3340.000000	90.473299 
3339.000000	90.473617 
3338.000000	90.473854 
3337.000000	90.474201 
3336.000000	90.474777 
3335.000000	90.475585 
3334.000000	90.476472 
3333.000000	90.477191 
3332.000000	90.477565 
3331.000000	90.477610 
3330.000000	90.477558 
3329.000000	90.477688 
3328.000000	90.478096 
3327.000000	90.478640 
3326.000000	90.479088 
3325.000000	90.479355 
3324.000000	90.479543 
3323.000000	90.479773 
3322.000000	90.480063 
3321.000000	90.480433 
3320.000000	90.481043 
3319.000000	90.482128 
3318.000000	90.483706 
3317.000000	90.485393 
3316.000000	90.486634 
3315.000000	90.487180 
3314.000000	90.487240 
3313.000000	90.487123 
3312.000000	90.486869 
3311.000000	90.486366 
3310.000000	90.485725 
3309.000000	90.485304 
3308.000000	90.485354 
3307.000000	90.485807 
3306.000000	90.486437 
3305.000000	90.487091 
3304.000000	90.487729 
3303.000000	90.488344 
3302.000000	90.488893 
3301.000000	90.489246 
3300.000000	90.489254 
3299.000000	90.489060 
3298.000000	90.489260 
3297.000000	90.490420 
3296.000000	90.492462 
3295.000000	90.494662 
3294.000000	90.496310 
3293.000000	90.497271 
3292.000000	90.497848 
3291.000000	90.498389 
3290.000000	90.499091 
3289.000000	90.499970 
3288.000000	90.500843 
3287.000000	90.501466 
3286.000000	90.501823 
3285.000000	90.502256 
3284.000000	90.503159 
3283.000000	90.504587 
3282.000000	90.506234 
3281.000000	90.507733 
3280.000000	90.508935 
3279.000000	90.509886 
3278.000000	90.510676 
3277.000000	90.511378 
3276.000000	90.512072 
3275.000000	90.512873 
3274.000000	90.513934 
3273.000000	90.515360 
3272.000000	90.517083 
3271.000000	90.518831 
3270.000000	90.520312 
3269.000000	90.521466 
3268.000000	90.522511 
3267.000000	90.523749 
3266.000000	90.525328 
3265.000000	90.527222 
3264.000000	90.529297 
3263.000000	90.531320 
3262.000000	90.532994 
3261.000000	90.534151 
3260.000000	90.534898 
3259.000000	90.535540 
3258.000000	90.536371 
3257.000000	90.537555 
3256.000000	90.539171 
3255.000000	90.541188 
3254.000000	90.543305 
3253.000000	90.545036 
3252.000000	90.546152 
3251.000000	90.546991 
3250.000000	90.548170 
3249.000000	90.549934 
3248.000000	90.551983 
3247.000000	90.553913 
3246.000000	90.555660 
3245.000000	90.557411 
3244.000000	90.559331 
3243.000000	90.561506 
3242.000000	90.564008 
3241.000000	90.566797 
3240.000000	90.569602 
3239.000000	90.572075 
3238.000000	90.574063 
3237.000000	90.575692 
3236.000000	90.577275 
3235.000000	90.579134 
3234.000000	90.581406 
3233.000000	90.583849 
3232.000000	90.585925 
3231.000000	90.587314 
3230.000000	90.588366 
3229.000000	90.589857 
3228.000000	90.592154 
3227.000000	90.594833 
3226.000000	90.597159 
3225.000000	90.598810 
3224.000000	90.600012 
3223.000000	90.601178 
3222.000000	90.602634 
3221.000000	90.604623 
3220.000000	90.607336 
3219.000000	90.610809 
3218.000000	90.614736 
3217.000000	90.618376 
3216.000000	90.620778 
3215.000000	90.621389 
3214.000000	90.620669 
3213.000000	90.620043 
3212.000000	90.620725 
3211.000000	90.622714 
3210.000000	90.625074 
3209.000000	90.627086 
3208.000000	90.628966 
3207.000000	90.631265 
3206.000000	90.633916 
3205.000000	90.636239 
3204.000000	90.637785 
3203.000000	90.638770 
3202.000000	90.639647 
3201.000000	90.640580 
3200.000000	90.641522 
3199.000000	90.642524 
3198.000000	90.643610 
3197.000000	90.644515 
3196.000000	90.644883 
3195.000000	90.644736 
3194.000000	90.644531 
3193.000000	90.644862 
3192.000000	90.646365 
3191.000000	90.649683 
3190.000000	90.654971 
3189.000000	90.661281 
3188.000000	90.666918 
3187.000000	90.670707 
3186.000000	90.672655 
3185.000000	90.673453 
3184.000000	90.673800 
3183.000000	90.674272 
3182.000000	90.675281 
3181.000000	90.676787 
3180.000000	90.678386 
3179.000000	90.680049 
3178.000000	90.682358 
3177.000000	90.685590 
3176.000000	90.688987 
3175.000000	90.691547 
3174.000000	90.693322 
3173.000000	90.695361 
3172.000000	90.698481 
3171.000000	90.702591 
3170.000000	90.707019 
3169.000000	90.710908 
3168.000000	90.713431 
3167.000000	90.714282 
3166.000000	90.714190 
3165.000000	90.714532 
3164.000000	90.715971 
3163.000000	90.717943 
3162.000000	90.719589 
3161.000000	90.720714 
3160.000000	90.721699 
3159.000000	90.722957 
3158.000000	90.724773 
3157.000000	90.727263 
3156.000000	90.730140 
3155.000000	90.732742 
3154.000000	90.734643 
3153.000000	90.736060 
3152.000000	90.737461 
3151.000000	90.738957 
3150.000000	90.740372 
3149.000000	90.741783 
3148.000000	90.743608 
3147.000000	90.746071 
3146.000000	90.748801 
3145.000000	90.751096 
3144.000000	90.752678 
3143.000000	90.753880 
3142.000000	90.755216 
3141.000000	90.756866 
3140.000000	90.758697 
3139.000000	90.760564 
3138.000000	90.762398 
3137.000000	90.764061 
3136.000000	90.765352 
3135.000000	90.766237 
3134.000000	90.766960 
3133.000000	90.767847 
3132.000000	90.769004 
3131.000000	90.770304 
3130.000000	90.771594 
3129.000000	90.772856 
3128.000000	90.774170 
3127.000000	90.775650 
3126.000000	90.777415 
3125.000000	90.779454 
3124.000000	90.781466 
3123.000000	90.783015 
3122.000000	90.783983 
3121.000000	90.784801 
3120.000000	90.786037 
3119.000000	90.787806 
3118.000000	90.789802 
3117.000000	90.791770 
3116.000000	90.793654 
3115.000000	90.795280 
3114.000000	90.796296 
3113.000000	90.796613 
3112.000000	90.796637 
3111.000000	90.796856 
3110.000000	90.797307 
3109.000000	90.797781 
3108.000000	90.798433 
3107.000000	90.799801 
3106.000000	90.802109 
3105.000000	90.804826 
3104.000000	90.807056 
3103.000000	90.808307 
3102.000000	90.808703 
3101.000000	90.808759 
3100.000000	90.809033 
3099.000000	90.809861 
3098.000000	90.811237 
3097.000000	90.812859 
3096.000000	90.814417 
3095.000000	90.815862 
3094.000000	90.817327 
3093.000000	90.818803 
3092.000000	90.820052 
3091.000000	90.820845 
3090.000000	90.821191 
3089.000000	90.821286 
3088.000000	90.821300 
3087.000000	90.821251 
3086.000000	90.821026 
3085.000000	90.820572 
3084.000000	90.820181 
3083.000000	90.820523 
3082.000000	90.822123 
3081.000000	90.824680 
3080.000000	90.827025 
3079.000000	90.828105 
3078.000000	90.827936 
3077.000000	90.827464 
3076.000000	90.827565 
3075.000000	90.828208 
3074.000000	90.828685 
3073.000000	90.828410 
3072.000000	90.827403 
3071.000000	90.826162 
3070.000000	90.825337 
3069.000000	90.825647 
3068.000000	90.827815 
3067.000000	90.832127 
3066.000000	90.837819 
3065.000000	90.843038 
3064.000000	90.845935 
3063.000000	90.846000 
3062.000000	90.844311 
3061.000000	90.842471 
3060.000000	90.841394 
3059.000000	90.841215 
3058.000000	90.841997 
3057.000000	90.843991 
3056.000000	90.847111 
3055.000000	90.850526 
3054.000000	90.853178 
3053.000000	90.854764 
3052.000000	90.856089 
3051.000000	90.858208 
3050.000000	90.861070 
3049.000000	90.863156 
3048.000000	90.862939 
3047.000000	90.860794 
3046.000000	90.859069 
3045.000000	90.860021 
3044.000000	90.863956 
3043.000000	90.869483 
3042.000000	90.874928 
3041.000000	90.879055 
3040.000000	90.880957 
3039.000000	90.880289 
3038.000000	90.877815 
3037.000000	90.875149 
3036.000000	90.873607 
3035.000000	90.873352 
3034.000000	90.873520 
3033.000000	90.872945 
3032.000000	90.871168 
3031.000000	90.869413 
3030.000000	90.870341 
3029.000000	90.875859 
3028.000000	90.884911 
3027.000000	90.893825 
3026.000000	90.899383 
3025.000000	90.901676 
3024.000000	90.903804 
3023.000000	90.909078 
3022.000000	90.918663 
3021.000000	90.931402 
3020.000000	90.945221 
3019.000000	90.958533 
3018.000000	90.970530 
3017.000000	90.980727 
3016.000000	90.988936 
3015.000000	90.995931 
3014.000000	91.003563 
3013.000000	91.013370 
3012.000000	91.024801 
3011.000000	91.035319 
3010.000000	91.042520 
3009.000000	91.046132 
3008.000000	91.048189 
3007.000000	91.051591 
3006.000000	91.058493 
3005.000000	91.069650 
3004.000000	91.084679 
3003.000000	91.102380 
3002.000000	91.120649 
3001.000000	91.136669 
3000.000000	91.148249 
2999.000000	91.155391 
2998.000000	91.160228 
2997.000000	91.165171 
2996.000000	91.171450 
2995.000000	91.179541 
2994.000000	91.190159 
2993.000000	91.203983 
2992.000000	91.220613 
2991.000000	91.238287 
2990.000000	91.254332 
2989.000000	91.265571 
2988.000000	91.269109 
2987.000000	91.264112 
2986.000000	91.253353 
2985.000000	91.242388 
2984.000000	91.236381 
2983.000000	91.237209 
2982.000000	91.243020 
2981.000000	91.249896 
2980.000000	91.254289 
2979.000000	91.254902 
2978.000000	91.252836 
2977.000000	91.249766 
2976.000000	91.245503 
2975.000000	91.237251 
2974.000000	91.221725 
2973.000000	91.198908 
2972.000000	91.174554 
2971.000000	91.158157 
2970.000000	91.156502 
2969.000000	91.168468 
2968.000000	91.185872 
2967.000000	91.200015 
2966.000000	91.207589 
2965.000000	91.209884 
2964.000000	91.208561 
2963.000000	91.204282 
2962.000000	91.198371 
2961.000000	91.192957 
2960.000000	91.188648 
2959.000000	91.183756 
2958.000000	91.176821 
2957.000000	91.168790 
2956.000000	91.161868 
2955.000000	91.157175 
2954.000000	91.154326 
2953.000000	91.152505 
2952.000000	91.150871 
2951.000000	91.148376 
2950.000000	91.144276 
2949.000000	91.138962 
2948.000000	91.133814 
2947.000000	91.130123 
2946.000000	91.128165 
2945.000000	91.127018 
2944.000000	91.125153 
2943.000000	91.121730 
2942.000000	91.117697 
2941.000000	91.115275 
2940.000000	91.115953 
2939.000000	91.119063 
2938.000000	91.122317 
2937.000000	91.123346 
2936.000000	91.120878 
2935.000000	91.115372 
2934.000000	91.109073 
2933.000000	91.104807 
2932.000000	91.103913 
2931.000000	91.105287 
2930.000000	91.106577 
2929.000000	91.106309 
2928.000000	91.105072 
2927.000000	91.104872 
2926.000000	91.106960 
2925.000000	91.109999 
2924.000000	91.111049 
2923.000000	91.109453 
2922.000000	91.109101 
2921.000000	91.114674 
2920.000000	91.125938 
2919.000000	91.138068 
2918.000000	91.148083 
2917.000000	91.158367 
2916.000000	91.172172 
2915.000000	91.188062 
2914.000000	91.201254 
2913.000000	91.209246 
2912.000000	91.213561 
2911.000000	91.216512 
2910.000000	91.218942 
2909.000000	91.221596 
2908.000000	91.226359 
2907.000000	91.234535 
2906.000000	91.244817 
2905.000000	91.254271 
2904.000000	91.261099 
2903.000000	91.265807 
2902.000000	91.269605 
2901.000000	91.272399 
2900.000000	91.272656 
2899.000000	91.269451 
2898.000000	91.264844 
2897.000000	91.263044 
2896.000000	91.266621 
2895.000000	91.273649 
2894.000000	91.279559 
2893.000000	91.281820 
2892.000000	91.281810 
2891.000000	91.282026 
2890.000000	91.282639 
2889.000000	91.281888 
2888.000000	91.279289 
2887.000000	91.277066 
2886.000000	91.277864 
2885.000000	91.281462 
2884.000000	91.284292 
2883.000000	91.282253 
2882.000000	91.274022 
2881.000000	91.262160 
2880.000000	91.251274 
2879.000000	91.244396 
2878.000000	91.240694 
2877.000000	91.236771 
2876.000000	91.230438 
2875.000000	91.222946 
2874.000000	91.217175 
2873.000000	91.214264 
2872.000000	91.213150 
2871.000000	91.213063 
2870.000000	91.214673 
2869.000000	91.218058 
2868.000000	91.220998 
2867.000000	91.220690 
2866.000000	91.216417 
2865.000000	91.209291 
2864.000000	91.200251 
2863.000000	91.189908 
2862.000000	91.179791 
2861.000000	91.171636 
2860.000000	91.165183 
2859.000000	91.158499 
2858.000000	91.151121 
2857.000000	91.145284 
2856.000000	91.143082 
2855.000000	91.143519 
2854.000000	91.143283 
2853.000000	91.139771 
2852.000000	91.132700 
2851.000000	91.123749 
2850.000000	91.115717 
2849.000000	91.111502 
2848.000000	91.112433 
2847.000000	91.117058 
2846.000000	91.122113 
2845.000000	91.125159 
2844.000000	91.126179 
2843.000000	91.126663 
2842.000000	91.127702 
2841.000000	91.129321 
2840.000000	91.131304 
2839.000000	91.133888 
2838.000000	91.137192 
2837.000000	91.140420 
2836.000000	91.142483 
2835.000000	91.143505 
2834.000000	91.144872 
2833.000000	91.147470 
2832.000000	91.150644 
2831.000000	91.153236 
2830.000000	91.154739 
2829.000000	91.154764 
2828.000000	91.152525 
2827.000000	91.148175 
2826.000000	91.144112 
2825.000000	91.143410 
2824.000000	91.146862 
2823.000000	91.152393 
2822.000000	91.157171 
2821.000000	91.159525 
2820.000000	91.159038 
2819.000000	91.156250 
2818.000000	91.152773 
2817.000000	91.150625 
2816.000000	91.150697 
2815.000000	91.152289 
2814.000000	91.154189 
2813.000000	91.155674 
2812.000000	91.156498 
2811.000000	91.156758 
2810.000000	91.157132 
2809.000000	91.158538 
2808.000000	91.161084 
2807.000000	91.163811 
2806.000000	91.165662 
2805.000000	91.166438 
2804.000000	91.166684 
2803.000000	91.167082 
2802.000000	91.168010 
2801.000000	91.169422 
2800.000000	91.170941 
2799.000000	91.172075 
2798.000000	91.172553 
2797.000000	91.172522 
2796.000000	91.172438 
2795.000000	91.172735 
2794.000000	91.173641 
2793.000000	91.175173 
2792.000000	91.177085 
2791.000000	91.178871 
2790.000000	91.180087 
2789.000000	91.180714 
2788.000000	91.181096 
2787.000000	91.181609 
2786.000000	91.182516 
2785.000000	91.184000 
2784.000000	91.185955 
2783.000000	91.187704 
2782.000000	91.188287 
2781.000000	91.187231 
2780.000000	91.184944 
2779.000000	91.182338 
2778.000000	91.180229 
2777.000000	91.179063 
2776.000000	91.178935 
2775.000000	91.179701 
2774.000000	91.181057 
2773.000000	91.182581 
2772.000000	91.183914 
2771.000000	91.185089 
2770.000000	91.186516 
2769.000000	91.188430 
2768.000000	91.190395 
2767.000000	91.191587 
2766.000000	91.191594 
2765.000000	91.190735 
2764.000000	91.189713 
2763.000000	91.189165 
2762.000000	91.189434 
2761.000000	91.190419 
2760.000000	91.191564 
2759.000000	91.192268 
2758.000000	91.192477 
2757.000000	91.192676 
2756.000000	91.193287 
2755.000000	91.194289 
2754.000000	91.195462 
2753.000000	91.196686 
2752.000000	91.197852 
2751.000000	91.198745 
2750.000000	91.199205 
2749.000000	91.199259 
2748.000000	91.199047 
2747.000000	91.198749 
2746.000000	91.198606 
2745.000000	91.198867 
2744.000000	91.199595 
2743.000000	91.200620 
2742.000000	91.201727 
2741.000000	91.202799 
2740.000000	91.203765 
2739.000000	91.204525 
2738.000000	91.205028 
2737.000000	91.205356 
2736.000000	91.205672 
2735.000000	91.206113 
2734.000000	91.206711 
2733.000000	91.207425 
2732.000000	91.208187 
2731.000000	91.208926 
2730.000000	91.209590 
2729.000000	91.210157 
2728.000000	91.210628 
2727.000000	91.211030 
2726.000000	91.211443 
2725.000000	91.211957 
2724.000000	91.212595 
2723.000000	91.213297 
2722.000000	91.213980 
2721.000000	91.214631 
2720.000000	91.215334 
2719.000000	91.216208 
2718.000000	91.217269 
2717.000000	91.218343 
2716.000000	91.219181 
2715.000000	91.219654 
2714.000000	91.219930 
2713.000000	91.220452 
2712.000000	91.221567 
2711.000000	91.223018 
2710.000000	91.223942 
2709.000000	91.223628 
2708.000000	91.222216 
2707.000000	91.220593 
2706.000000	91.219684 
2705.000000	91.220081 
2704.000000	91.221953 
2703.000000	91.224730 
2702.000000	91.227160 
2701.000000	91.228234 
2700.000000	91.228121 
2699.000000	91.227994 
2698.000000	91.228870 
2697.000000	91.230640 
2696.000000	91.232158 
2695.000000	91.232395 
2694.000000	91.231647 
2693.000000	91.231267 
2692.000000	91.231964 
2691.000000	91.232890 
2690.000000	91.232935 
2689.000000	91.232256 
2688.000000	91.231594 
2687.000000	91.230802 
2686.000000	91.229481 
2685.000000	91.228668 
2684.000000	91.230241 
2683.000000	91.234681 
2682.000000	91.240871 
2681.000000	91.247768 
2680.000000	91.254270 
2679.000000	91.257631 
2678.000000	91.254885 
2677.000000	91.246751 
2676.000000	91.237989 
2675.000000	91.232076 
2674.000000	91.227178 
2673.000000	91.219174 
2672.000000	91.207237 
2671.000000	91.194694 
2670.000000	91.185348 
2669.000000	91.180782 
2668.000000	91.180730 
2667.000000	91.184192 
2666.000000	91.190020 
2665.000000	91.197569 
2664.000000	91.206800 
2663.000000	91.217154 
2662.000000	91.226923 
2661.000000	91.234610 
2660.000000	91.240162 
2659.000000	91.243655 
2658.000000	91.243411 
2657.000000	91.237120 
2656.000000	91.224988 
2655.000000	91.210532 
2654.000000	91.197701 
2653.000000	91.187836 
2652.000000	91.179777 
2651.000000	91.172151 
2650.000000	91.165095 
2649.000000	91.160215 
2648.000000	91.159303 
2647.000000	91.162898 
2646.000000	91.169889 
2645.000000	91.178570 
2644.000000	91.188044 
2643.000000	91.198433 
2642.000000	91.209958 
2641.000000	91.222334 
2640.000000	91.235100 
2639.000000	91.247974 
2638.000000	91.260475 
2637.000000	91.271576 
2636.000000	91.280201 
2635.000000	91.285916 
2634.000000	91.288602 
2633.000000	91.287512 
2632.000000	91.281613 
2631.000000	91.271585 
2630.000000	91.260873 
2629.000000	91.253581 
2628.000000	91.251072 
2627.000000	91.251541 
2626.000000	91.252953 
2625.000000	91.255189 
2624.000000	91.258770 
2623.000000	91.262910 
2622.000000	91.266336 
2621.000000	91.269352 
2620.000000	91.273378 
2619.000000	91.278416 
2618.000000	91.282454 
2617.000000	91.283771 
2616.000000	91.282633 
2615.000000	91.280222 
2614.000000	91.277154 
2613.000000	91.273979 
2612.000000	91.272184 
2611.000000	91.273127 
2610.000000	91.275883 
2609.000000	91.277343 
2608.000000	91.275289 
2607.000000	91.270952 
2606.000000	91.267910 
2605.000000	91.268400 
2604.000000	91.271348 
2603.000000	91.274104 
2602.000000	91.275377 
2601.000000	91.275883 
2600.000000	91.276546 
2599.000000	91.277147 
2598.000000	91.277097 
2597.000000	91.276590 
2596.000000	91.276207 
2595.000000	91.275853 
2594.000000	91.274911 
2593.000000	91.273273 
2592.000000	91.271584 
2591.000000	91.270547 
2590.000000	91.270382 
2589.000000	91.270853 
2588.000000	91.271463 
2587.000000	91.271665 
2586.000000	91.271204 
2585.000000	91.270317 
2584.000000	91.269456 
2583.000000	91.268872 
2582.000000	91.268631 
2581.000000	91.268786 
2580.000000	91.269246 
2579.000000	91.269629 
2578.000000	91.269611 
2577.000000	91.269378 
2576.000000	91.269393 
2575.000000	91.269751 
2574.000000	91.270103 
2573.000000	91.270187 
2572.000000	91.270133 
2571.000000	91.270197 
2570.000000	91.270486 
2569.000000	91.270868 
2568.000000	91.270796 
2567.000000	91.269388 
2566.000000	91.266258 
2565.000000	91.262428 
2564.000000	91.259785 
2563.000000	91.259307 
2562.000000	91.260477 
2561.000000	91.262427 
2560.000000	91.265057 
2559.000000	91.268438 
2558.000000	91.271779 
2557.000000	91.273850 
2556.000000	91.274336 
2555.000000	91.274149 
2554.000000	91.274386 
2553.000000	91.275148 
2552.000000	91.275537 
2551.000000	91.274690 
2550.000000	91.272729 
2549.000000	91.270781 
2548.000000	91.269990 
2547.000000	91.270534 
2546.000000	91.271672 
2545.000000	91.272614 
2544.000000	91.273159 
2543.000000	91.273476 
2542.000000	91.273615 
2541.000000	91.273511 
2540.000000	91.273314 
2539.000000	91.273365 
2538.000000	91.273789 
2537.000000	91.274311 
2536.000000	91.274655 
2535.000000	91.274988 
2534.000000	91.275743 
2533.000000	91.276950 
2532.000000	91.278032 
2531.000000	91.278494 
2530.000000	91.278688 
2529.000000	91.279529 
2528.000000	91.281429 
2527.000000	91.283809 
2526.000000	91.285695 
2525.000000	91.286610 
2524.000000	91.286649 
2523.000000	91.286152 
2522.000000	91.285578 
2521.000000	91.285463 
2520.000000	91.286033 
2519.000000	91.286831 
2518.000000	91.287129 
2517.000000	91.286827 
2516.000000	91.286644 
2515.000000	91.287284 
2514.000000	91.288727 
2513.000000	91.290410 
2512.000000	91.291759 
2511.000000	91.292412 
2510.000000	91.292312 
2509.000000	91.291859 
2508.000000	91.291699 
2507.000000	91.292178 
2506.000000	91.293192 
2505.000000	91.294550 
2504.000000	91.296045 
2503.000000	91.297143 
2502.000000	91.297199 
2501.000000	91.296143 
2500.000000	91.294523 
2499.000000	91.292807 
2498.000000	91.291174 
2497.000000	91.290092 
2496.000000	91.290251 
2495.000000	91.291559 
2494.000000	91.293030 
2493.000000	91.294181 
2492.000000	91.295774 
2491.000000	91.298442 
2490.000000	91.301241 
2489.000000	91.302510 
2488.000000	91.301770 
2487.000000	91.299816 
2486.000000	91.297234 
2485.000000	91.293804 
2484.000000	91.289564 
2483.000000	91.285685 
2482.000000	91.283769 
2481.000000	91.284522 
2480.000000	91.287316 
2479.000000	91.290708 
2478.000000	91.293504 
2477.000000	91.295475 
2476.000000	91.297013 
2475.000000	91.298205 
2474.000000	91.298595 
2473.000000	91.297942 
2472.000000	91.296752 
2471.000000	91.295741 
2470.000000	91.295096 
2469.000000	91.294642 
2468.000000	91.294360 
2467.000000	91.294352 
2466.000000	91.294619 
2465.000000	91.295310 
2464.000000	91.296856 
2463.000000	91.299286 
2462.000000	91.301637 
2461.000000	91.302707 
2460.000000	91.302386 
2459.000000	91.301635 
2458.000000	91.301151 
2457.000000	91.300511 
2456.000000	91.298948 
2455.000000	91.296614 
2454.000000	91.294773 
2453.000000	91.294644 
2452.000000	91.296287 
2451.000000	91.298615 
2450.000000	91.300387 
2449.000000	91.301311 
2448.000000	91.302042 
2447.000000	91.303290 
2446.000000	91.305074 
2445.000000	91.306805 
2444.000000	91.307858 
2443.000000	91.307973 
2442.000000	91.307342 
2441.000000	91.306455 
2440.000000	91.305717 
2439.000000	91.305179 
2438.000000	91.304741 
2437.000000	91.304497 
2436.000000	91.304641 
2435.000000	91.305068 
2434.000000	91.305391 
2433.000000	91.305413 
2432.000000	91.305284 
2431.000000	91.305113 
2430.000000	91.304772 
2429.000000	91.304244 
2428.000000	91.303820 
2427.000000	91.303767 
2426.000000	91.304039 
2425.000000	91.304385 
2424.000000	91.304429 
2423.000000	91.303641 
2422.000000	91.301745 
2421.000000	91.299402 
2420.000000	91.297999 
2419.000000	91.298438 
2418.000000	91.300474 
2417.000000	91.303098 
2416.000000	91.305199 
2415.000000	91.305943 
2414.000000	91.305081 
2413.000000	91.303377 
2412.000000	91.302300 
2411.000000	91.302467 
2410.000000	91.302975 
2409.000000	91.302663 
2408.000000	91.301413 
2407.000000	91.299758 
2406.000000	91.298012 
2405.000000	91.296187 
2404.000000	91.294447 
2403.000000	91.293007 
2402.000000	91.291770 
2401.000000	91.290477 
2400.000000	91.289047 
2399.000000	91.287601 
2398.000000	91.286274 
2397.000000	91.285118 
2396.000000	91.284110 
2395.000000	91.283103 
2394.000000	91.281702 
2393.000000	91.279853 
2392.000000	91.277885 
2391.000000	91.275915 
2390.000000	91.273988 
2389.000000	91.272131 
2388.000000	91.270288 
2387.000000	91.268422 
2386.000000	91.266523 
2385.000000	91.264592 
2384.000000	91.262624 
2383.000000	91.260626 
2382.000000	91.258610 
2381.000000	91.256587 
2380.000000	91.254566 
2379.000000	91.252548 
2378.000000	91.250521 
2377.000000	91.248466 
2376.000000	91.246370 
2375.000000	91.244229 
2374.000000	91.242056 
2373.000000	91.239867 
2372.000000	91.237684 
2371.000000	91.235532 
2370.000000	91.233418 
2369.000000	91.231328 
2368.000000	91.229234 
2367.000000	91.227118 
2366.000000	91.224979 
2365.000000	91.222836 
2364.000000	91.220707 
2363.000000	91.218600 
2362.000000	91.216514 
2361.000000	91.214459 
2360.000000	91.212451 
2359.000000	91.210507 
2358.000000	91.208632 
2357.000000	91.206832 
2356.000000	91.205108 
2355.000000	91.203453 
2354.000000	91.201852 
2353.000000	91.200265 
2352.000000	91.198643 
2351.000000	91.196966 
2350.000000	91.195275 
2349.000000	91.193658 
2348.000000	91.192206 
2347.000000	91.190969 
2346.000000	91.189932 
2345.000000	91.189036 
2344.000000	91.188228 
2343.000000	91.187500 
2342.000000	91.186871 
2341.000000	91.186348 
2340.000000	91.185928 
2339.000000	91.185601 
2338.000000	91.185368 
2337.000000	91.185228 
2336.000000	91.185175 
2335.000000	91.185215 
2334.000000	91.185364 
2333.000000	91.185636 
2332.000000	91.186037 
2331.000000	91.186552 
2330.000000	91.187147 
2329.000000	91.187790 
2328.000000	91.188421 
2327.000000	91.188962 
2326.000000	91.189461 
2325.000000	91.190114 
2324.000000	91.191106 
2323.000000	91.192467 
2322.000000	91.194158 
2321.000000	91.196031 
2320.000000	91.197842 
2319.000000	91.199440 
2318.000000	91.200920 
2317.000000	91.202551 
2316.000000	91.204494 
2315.000000	91.206795 
2314.000000	91.209363 
2313.000000	91.212017 
2312.000000	91.214479 
2311.000000	91.216739 
2310.000000	91.218989 
2309.000000	91.221096 
2308.000000	91.222803 
2307.000000	91.224721 
2306.000000	91.228331 
2305.000000	91.233980 
2304.000000	91.239787 
2303.000000	91.244147 
2302.000000	91.247436 
2301.000000	91.250428 
2300.000000	91.253346 
2299.000000	91.256367 
2298.000000	91.259544 
2297.000000	91.262403 
2296.000000	91.264028 
2295.000000	91.264770 
2294.000000	91.266240 
2293.000000	91.269604 
2292.000000	91.274294 
2291.000000	91.278912 
2290.000000	91.282493 
2289.000000	91.284534 
2288.000000	91.285183 
2287.000000	91.285624 
2286.000000	91.287386 
2285.000000	91.290179 
2284.000000	91.292051 
2283.000000	91.291816 
2282.000000	91.290732 
2281.000000	91.291074 
2280.000000	91.293881 
2279.000000	91.298608 
2278.000000	91.304221 
2277.000000	91.309862 
2276.000000	91.314613 
2275.000000	91.317477 
2274.000000	91.317840 
2273.000000	91.316144 
2272.000000	91.313857 
2271.000000	91.312594 
2270.000000	91.312850 
2269.000000	91.313651 
2268.000000	91.313602 
2267.000000	91.312332 
2266.000000	91.310694 
2265.000000	91.309796 
2264.000000	91.310284 
2263.000000	91.312263 
2262.000000	91.315225 
2261.000000	91.318022 
2260.000000	91.319619 
2259.000000	91.319997 
2258.000000	91.319944 
2257.000000	91.319933 
2256.000000	91.319892 
2255.000000	91.319868 
2254.000000	91.320182 
2253.000000	91.320847 
2252.000000	91.321576 
2251.000000	91.322608 
2250.000000	91.324631 
2249.000000	91.327642 
2248.000000	91.330437 
2247.000000	91.331779 
2246.000000	91.331519 
2245.000000	91.330265 
2244.000000	91.328592 
2243.000000	91.326861 
2242.000000	91.325390 
2241.000000	91.324320 
2240.000000	91.323597 
2239.000000	91.323337 
2238.000000	91.323884 
2237.000000	91.325207 
2236.000000	91.326582 
2235.000000	91.327263 
2234.000000	91.327219 
2233.000000	91.326968 
2232.000000	91.326947 
2231.000000	91.327214 
2230.000000	91.327583 
2229.000000	91.327866 
2228.000000	91.328061 
2227.000000	91.328402 
2226.000000	91.329137 
2225.000000	91.330242 
2224.000000	91.331413 
2223.000000	91.332317 
2222.000000	91.332728 
2221.000000	91.332520 
2220.000000	91.331785 
2219.000000	91.330974 
2218.000000	91.330618 
2217.000000	91.330822 
2216.000000	91.331226 
2215.000000	91.331456 
2214.000000	91.331448 
2213.000000	91.331345 
2212.000000	91.331402 
2211.000000	91.331971 
2210.000000	91.333203 
2209.000000	91.334686 
2208.000000	91.335683 
2207.000000	91.335950 
2206.000000	91.335973 
2205.000000	91.336325 
2204.000000	91.336984 
2203.000000	91.337519 
2202.000000	91.337724 
2201.000000	91.337763 
2200.000000	91.337849 
2199.000000	91.337999 
2198.000000	91.338140 
2197.000000	91.338303 
2196.000000	91.338611 
2195.000000	91.339157 
2194.000000	91.339929 
2193.000000	91.340774 
2192.000000	91.341453 
2191.000000	91.341821 
2190.000000	91.341945 
2189.000000	91.341999 
2188.000000	91.342058 
2187.000000	91.342078 
2186.000000	91.342045 
2185.000000	91.342037 
2184.000000	91.342140 
2183.000000	91.342380 
2182.000000	91.342721 
2181.000000	91.343053 
2180.000000	91.343214 
2179.000000	91.343110 
2178.000000	91.342848 
2177.000000	91.342686 
2176.000000	91.342779 
2175.000000	91.343088 
2174.000000	91.343484 
2173.000000	91.343891 
2172.000000	91.344295 
2171.000000	91.344685 
2170.000000	91.345017 
2169.000000	91.345203 
2168.000000	91.345111 
2167.000000	91.344681 
2166.000000	91.344088 
2165.000000	91.343738 
2164.000000	91.343962 
2163.000000	91.344754 
2162.000000	91.345750 
2161.000000	91.346455 
2160.000000	91.346605 
2159.000000	91.346354 
2158.000000	91.346147 
2157.000000	91.346246 
2156.000000	91.346409 
2155.000000	91.346181 
2154.000000	91.345438 
2153.000000	91.344481 
2152.000000	91.343628 
2151.000000	91.342964 
2150.000000	91.342523 
2149.000000	91.342416 
2148.000000	91.342588 
2147.000000	91.342726 
2146.000000	91.342623 
2145.000000	91.342491 
2144.000000	91.342776 
2143.000000	91.343810 
2142.000000	91.345698 
2141.000000	91.348139 
2140.000000	91.350172 
2139.000000	91.350641 
2138.000000	91.349277 
2137.000000	91.347254 
2136.000000	91.346252 
2135.000000	91.346783 
2134.000000	91.347934 
2133.000000	91.348582 
2132.000000	91.348410 
2131.000000	91.347687 
2130.000000	91.346578 
2129.000000	91.345011 
2128.000000	91.343003 
2127.000000	91.340905 
2126.000000	91.339340 
2125.000000	91.338858 
2124.000000	91.339445 
2123.000000	91.340374 
2122.000000	91.340878 
2121.000000	91.341003 
2120.000000	91.341471 
2119.000000	91.342673 
2118.000000	91.344171 
2117.000000	91.345243 
2116.000000	91.345568 
2115.000000	91.345175 
2114.000000	91.344195 
2113.000000	91.343020 
2112.000000	91.342338 
2111.000000	91.342553 
2110.000000	91.343312 
2109.000000	91.343987 
2108.000000	91.344519 
2107.000000	91.345416 
2106.000000	91.346931 
2105.000000	91.348649 
2104.000000	91.349959 
2103.000000	91.350669 
2102.000000	91.351085 
2101.000000	91.351705 
2100.000000	91.352870 
2099.000000	91.354509 
2098.000000	91.356198 
2097.000000	91.357563 
2096.000000	91.358605 
2095.000000	91.359514 
2094.000000	91.360240 
2093.000000	91.360491 
2092.000000	91.360148 
2091.000000	91.359415 
2090.000000	91.358662 
2089.000000	91.358378 
2088.000000	91.359077 
2087.000000	91.360832 
2086.000000	91.362857 
2085.000000	91.363997 
2084.000000	91.363832 
2083.000000	91.362928 
2082.000000	91.362150 
2081.000000	91.361875 
2080.000000	91.362051 
2079.000000	91.362595 
2078.000000	91.363346 
2077.000000	91.363885 
2076.000000	91.363801 
2075.000000	91.363115 
2074.000000	91.362297 
2073.000000	91.361863 
2072.000000	91.362023 
2071.000000	91.362680 
2070.000000	91.363545 
2069.000000	91.364313 
2068.000000	91.364904 
2067.000000	91.365495 
2066.000000	91.366215 
2065.000000	91.366858 
2064.000000	91.367061 
2063.000000	91.366761 
2062.000000	91.366299 
2061.000000	91.366073 
2060.000000	91.366189 
2059.000000	91.366458 
2058.000000	91.366589 
2057.000000	91.366372 
2056.000000	91.365776 
2055.000000	91.365005 
2054.000000	91.364409 
2053.000000	91.364264 
2052.000000	91.364623 
2051.000000	91.365305 
2050.000000	91.365981 
2049.000000	91.366361 
2048.000000	91.366390 
2047.000000	91.366242 
2046.000000	91.366085 
2045.000000	91.365968 
2044.000000	91.366051 
2043.000000	91.366655 
2042.000000	91.367725 
2041.000000	91.368423 
2040.000000	91.367868 
2039.000000	91.366162 
2038.000000	91.364436 
2037.000000	91.363589 
2036.000000	91.363293 
2035.000000	91.362593 
2034.000000	91.361162 
2033.000000	91.359624 
2032.000000	91.358745 
2031.000000	91.358741 
2030.000000	91.359353 
2029.000000	91.360213 
2028.000000	91.361118 
2027.000000	91.362051 
2026.000000	91.362911 
2025.000000	91.363297 
2024.000000	91.362865 
2023.000000	91.361983 
2022.000000	91.361619 
2021.000000	91.362274 
2020.000000	91.363348 
2019.000000	91.363868 
2018.000000	91.363593 
2017.000000	91.363021 
2016.000000	91.362568 
2015.000000	91.362186 
2014.000000	91.361649 
2013.000000	91.360688 
2012.000000	91.359011 
2011.000000	91.356734 
2010.000000	91.354720 
2009.000000	91.353887 
2008.000000	91.354085 
2007.000000	91.354211 
2006.000000	91.353691 
2005.000000	91.353306 
2004.000000	91.354175 
2003.000000	91.356268 
2002.000000	91.358171 
2001.000000	91.358321 
2000.000000	91.356473 
1999.000000	91.353997 
1998.000000	91.352744 
1997.000000	91.353475 
1996.000000	91.355575 
1995.000000	91.358112 
1994.000000	91.360686 
1993.000000	91.363141 
1992.000000	91.365165 
1991.000000	91.366636 
1990.000000	91.367881 
1989.000000	91.369078 
1988.000000	91.369796 
1987.000000	91.369618 
1986.000000	91.368883 
1985.000000	91.368364 
1984.000000	91.368343 
1983.000000	91.368484 
1982.000000	91.368504 
1981.000000	91.368553 
1980.000000	91.368945 
1979.000000	91.369872 
1978.000000	91.371354 
1977.000000	91.373158 
1976.000000	91.374860 
1975.000000	91.376226 
1974.000000	91.377433 
1973.000000	91.378708 
1972.000000	91.379969 
1971.000000	91.381102 
1970.000000	91.382410 
1969.000000	91.384338 
1968.000000	91.386705 
1967.000000	91.388550 
1966.000000	91.389088 
1965.000000	91.388512 
1964.000000	91.387764 
1963.000000	91.387652 
1962.000000	91.388254 
1961.000000	91.389138 
1960.000000	91.389902 
1959.000000	91.390554 
1958.000000	91.391429 
1957.000000	91.392799 
1956.000000	91.394616 
1955.000000	91.396510 
1954.000000	91.397979 
1953.000000	91.398730 
1952.000000	91.398855 
1951.000000	91.398783 
1950.000000	91.398987 
1949.000000	91.399672 
1948.000000	91.400746 
1947.000000	91.401961 
1946.000000	91.403049 
1945.000000	91.403785 
1944.000000	91.404116 
1943.000000	91.404316 
1942.000000	91.404812 
1941.000000	91.405705 
1940.000000	91.406655 
1939.000000	91.407319 
1938.000000	91.407661 
1937.000000	91.407824 
1936.000000	91.407916 
1935.000000	91.408036 
1934.000000	91.408263 
1933.000000	91.408449 
1932.000000	91.408210 
1931.000000	91.407377 
1930.000000	91.406354 
1929.000000	91.405803 
1928.000000	91.405901 
1927.000000	91.406299 
1926.000000	91.406821 
1925.000000	91.407602 
1924.000000	91.408484 
1923.000000	91.408722 
1922.000000	91.407891 
1921.000000	91.406618 
1920.000000	91.405786 
1919.000000	91.405568 
1918.000000	91.405625 
1917.000000	91.405770 
1916.000000	91.405937 
1915.000000	91.405907 
1914.000000	91.405637 
1913.000000	91.405642 
1912.000000	91.406503 
1911.000000	91.407963 
1910.000000	91.408963 
1909.000000	91.408738 
1908.000000	91.407335 
1907.000000	91.405103 
1906.000000	91.402167 
1905.000000	91.398561 
1904.000000	91.394808 
1903.000000	91.391989 
1902.000000	91.391164 
1901.000000	91.392491 
1900.000000	91.394698 
1899.000000	91.396049 
1898.000000	91.396009 
1897.000000	91.395483 
1896.000000	91.395321 
1895.000000	91.394925 
1894.000000	91.392984 
1893.000000	91.389279 
1892.000000	91.385073 
1891.000000	91.381974 
1890.000000	91.380860 
1889.000000	91.381483 
1888.000000	91.382697 
1887.000000	91.383466 
1886.000000	91.383630 
1885.000000	91.383680 
1884.000000	91.384108 
1883.000000	91.385057 
1882.000000	91.386508 
1881.000000	91.388322 
1880.000000	91.389901 
1879.000000	91.390283 
1878.000000	91.388849 
1877.000000	91.385838 
1876.000000	91.382272 
1875.000000	91.379479 
1874.000000	91.378594 
1873.000000	91.380244 
1872.000000	91.384228 
1871.000000	91.389439 
1870.000000	91.394328 
1869.000000	91.397812 
1868.000000	91.399768 
1867.000000	91.400647 
1866.000000	91.400844 
1865.000000	91.400450 
1864.000000	91.399600 
1863.000000	91.398971 
1862.000000	91.399619 
1861.000000	91.402057 
1860.000000	91.405478 
1859.000000	91.408231 
1858.000000	91.409467 
1857.000000	91.409970 
1856.000000	91.411108 
1855.000000	91.413374 
1854.000000	91.416316 
1853.000000	91.419494 
1852.000000	91.422699 
1851.000000	91.425225 
1850.000000	91.425907 
1849.000000	91.424257 
1848.000000	91.421590 
1847.000000	91.420362 
1846.000000	91.421931 
1845.000000	91.425283 
1844.000000	91.427866 
1843.000000	91.428192 
1842.000000	91.426932 
1841.000000	91.425442 
1840.000000	91.424942 
1839.000000	91.426827 
1838.000000	91.431517 
1837.000000	91.436826 
1836.000000	91.439652 
1835.000000	91.439663 
1834.000000	91.439708 
1833.000000	91.442224 
1832.000000	91.446622 
1831.000000	91.450545 
1830.000000	91.452176 
1829.000000	91.450776 
1828.000000	91.447294 
1827.000000	91.444872 
1826.000000	91.446802 
1825.000000	91.452877 
1824.000000	91.458344 
1823.000000	91.458810 
1822.000000	91.454763 
1821.000000	91.449787 
1820.000000	91.446358 
1819.000000	91.444211 
1818.000000	91.441867 
1817.000000	91.438878 
1816.000000	91.436015 
1815.000000	91.433493 
1814.000000	91.430371 
1813.000000	91.425704 
1812.000000	91.419787 
1811.000000	91.414291 
1810.000000	91.410784 
1809.000000	91.409163 
1808.000000	91.406914 
1807.000000	91.401399 
1806.000000	91.394071 
1805.000000	91.389685 
1804.000000	91.389937 
1803.000000	91.390273 
1802.000000	91.385399 
1801.000000	91.376363 
1800.000000	91.368536 
1799.000000	91.363917 
1798.000000	91.360049 
1797.000000	91.355241 
1796.000000	91.350034 
1795.000000	91.344882 
1794.000000	91.339520 
1793.000000	91.334299 
1792.000000	91.329694 
1791.000000	91.323837 
1790.000000	91.314602 
1789.000000	91.303052 
1788.000000	91.291642 
1787.000000	91.281980 
1786.000000	91.275215 
1785.000000	91.272525 
1784.000000	91.273655 
1783.000000	91.275746 
1782.000000	91.275284 
1781.000000	91.269908 
1780.000000	91.258890 
1779.000000	91.243788 
1778.000000	91.226406 
1777.000000	91.206381 
1776.000000	91.182071 
1775.000000	91.154206 
1774.000000	91.127207 
1773.000000	91.104266 
1772.000000	91.082618 
1771.000000	91.056779 
1770.000000	91.025721 
1769.000000	90.992822 
1768.000000	90.961239 
1767.000000	90.931875 
1766.000000	90.903831 
1765.000000	90.875782 
1764.000000	90.846287 
1763.000000	90.813499 
1762.000000	90.776741 
1761.000000	90.739244 
1760.000000	90.706706 
1759.000000	90.680867 
1758.000000	90.655359 
1757.000000	90.619536 
1756.000000	90.569538 
1755.000000	90.514235 
1754.000000	90.465105 
1753.000000	90.425538 
1752.000000	90.392047 
1751.000000	90.360858 
1750.000000	90.331074 
1749.000000	90.302322 
1748.000000	90.274042 
1747.000000	90.246542 
1746.000000	90.220865 
1745.000000	90.197052 
1744.000000	90.173788 
1743.000000	90.150554 
1742.000000	90.128270 
1741.000000	90.108594 
1740.000000	90.093733 
1739.000000	90.085418 
1738.000000	90.084692 
1737.000000	90.096004 
1736.000000	90.128369 
1735.000000	90.188992 
1734.000000	90.265265 
1733.000000	90.325075 
1732.000000	90.356271 
1731.000000	90.371656 
1730.000000	90.380652 
1729.000000	90.384516 
1728.000000	90.383518 
1727.000000	90.381117 
1726.000000	90.383559 
1725.000000	90.396376 
1724.000000	90.420266 
1723.000000	90.449543 
1722.000000	90.477249 
1721.000000	90.502825 
1720.000000	90.531569 
1719.000000	90.566899 
1718.000000	90.604354 
1717.000000	90.637455 
1716.000000	90.667613 
1715.000000	90.699912 
1714.000000	90.736559 
1713.000000	90.777012 
1712.000000	90.818800 
1711.000000	90.858129 
1710.000000	90.892044 
1709.000000	90.922477 
1708.000000	90.955574 
1707.000000	90.994470 
1706.000000	91.034090 
1705.000000	91.065489 
1704.000000	91.086228 
1703.000000	91.101834 
1702.000000	91.118246 
1701.000000	91.137726 
1700.000000	91.157502 
1699.000000	91.169675 
1698.000000	91.172961 
1697.000000	91.176133 
1696.000000	91.184445 
1695.000000	91.194081 
1694.000000	91.200272 
1693.000000	91.204095 
1692.000000	91.207039 
1691.000000	91.207280 
1690.000000	91.203565 
1689.000000	91.198102 
1688.000000	91.193314 
1687.000000	91.188208 
1686.000000	91.180428 
1685.000000	91.170739 
1684.000000	91.164940 
1683.000000	91.161622 
1682.000000	91.155071 
1681.000000	91.147526 
1680.000000	91.143182 
1679.000000	91.143973 
1678.000000	91.148731 
1677.000000	91.153237 
1676.000000	91.152746 
1675.000000	91.146565 
1674.000000	91.138682 
1673.000000	91.131878 
1672.000000	91.126320 
1671.000000	91.122112 
1670.000000	91.120681 
1669.000000	91.120903 
1668.000000	91.117126 
1667.000000	91.107386 
1666.000000	91.095767 
1665.000000	91.086352 
1664.000000	91.079711 
1663.000000	91.073120 
1662.000000	91.064498 
1661.000000	91.055312 
1660.000000	91.048082 
1659.000000	91.044545 
1658.000000	91.045313 
1657.000000	91.048539 
1656.000000	91.049491 
1655.000000	91.043957 
1654.000000	91.032286 
1653.000000	91.024750 
1652.000000	91.024771 
1651.000000	91.024966 
1650.000000	91.023833 
1649.000000	91.020821 
1648.000000	91.014103 
1647.000000	91.004976 
1646.000000	90.997728 
1645.000000	90.995891 
1644.000000	90.999496 
1643.000000	91.005465 
1642.000000	91.009130 
1641.000000	91.008115 
1640.000000	91.003834 
1639.000000	90.999654 
1638.000000	90.997896 
1637.000000	90.998527 
1636.000000	91.001172 
1635.000000	91.005794 
1634.000000	91.011182 
1633.000000	91.015750 
1632.000000	91.018989 
1631.000000	91.020687 
1630.000000	91.021434 
1629.000000	91.022442 
1628.000000	91.023894 
1627.000000	91.025190 
1626.000000	91.026773 
1625.000000	91.030070 
1624.000000	91.035284 
1623.000000	91.040852 
1622.000000	91.044932 
1621.000000	91.046890 
1620.000000	91.047195 
1619.000000	91.047070 
1618.000000	91.048901 
1617.000000	91.055148 
1616.000000	91.063722 
1615.000000	91.070114 
1614.000000	91.074131 
1613.000000	91.077829 
1612.000000	91.081572 
1611.000000	91.084685 
1610.000000	91.087358 
1609.000000	91.090054 
1608.000000	91.092070 
1607.000000	91.093123 
1606.000000	91.094795 
1605.000000	91.098515 
1604.000000	91.103530 
1603.000000	91.108380 
1602.000000	91.112665 
1601.000000	91.116546 
1600.000000	91.120000 
1599.000000	91.123264 
1598.000000	91.127151 
1597.000000	91.132189 
1596.000000	91.137817 
1595.000000	91.142735 
1594.000000	91.146075 
1593.000000	91.147949 
1592.000000	91.149102 
1591.000000	91.150451 
1590.000000	91.152564 
1589.000000	91.155298 
1588.000000	91.158060 
1587.000000	91.160511 
1586.000000	91.162826 
1585.000000	91.165344 
1584.000000	91.168227 
1583.000000	91.171603 
1582.000000	91.175698 
1581.000000	91.180265 
1580.000000	91.184502 
1579.000000	91.187826 
1578.000000	91.190184 
1577.000000	91.191573 
1576.000000	91.192330 
1575.000000	91.193632 
1574.000000	91.196273 
1573.000000	91.199663 
1572.000000	91.202687 
1571.000000	91.204864 
1570.000000	91.206976 
1569.000000	91.209701 
1568.000000	91.212248 
1567.000000	91.214169 
1566.000000	91.216143 
1565.000000	91.218634 
1564.000000	91.221362 
1563.000000	91.224268 
1562.000000	91.227549 
1561.000000	91.231204 
1560.000000	91.233355 
1559.000000	91.234802 
1558.000000	91.237787 
1557.000000	91.239929 
1556.000000	91.239747 
1555.000000	91.237853 
1554.000000	91.235731 
1553.000000	91.235516 
1552.000000	91.237883 
1551.000000	91.242193 
1550.000000	91.247115 
1549.000000	91.251506 
1548.000000	91.255085 
1547.000000	91.258020 
1546.000000	91.260470 
1545.000000	91.262724 
1544.000000	91.265267 
1543.000000	91.268184 
1542.000000	91.270762 
1541.000000	91.272411 
1540.000000	91.274130 
1539.000000	91.276521 
1538.000000	91.278901 
1537.000000	91.281072 
1536.000000	91.283257 
1535.000000	91.285686 
1534.000000	91.289233 
1533.000000	91.294357 
1532.000000	91.299605 
1531.000000	91.303702 
1530.000000	91.307321 
1529.000000	91.311727 
1528.000000	91.317340 
1527.000000	91.323066 
1526.000000	91.327062 
1525.000000	91.328561 
1524.000000	91.328344 
1523.000000	91.327910 
1522.000000	91.329286 
1521.000000	91.333907 
1520.000000	91.340464 
1519.000000	91.346988 
1518.000000	91.353092 
1517.000000	91.358126 
1516.000000	91.360979 
1515.000000	91.361932 
1514.000000	91.362672 
1513.000000	91.364333 
1512.000000	91.367017 
1511.000000	91.370564 
1510.000000	91.374474 
1509.000000	91.378577 
1508.000000	91.382626 
1507.000000	91.386490 
1506.000000	91.389352 
1505.000000	91.392984 
1504.000000	91.400469 
1503.000000	91.411103 
1502.000000	91.420864 
1501.000000	91.426077 
1500.000000	91.426754 
1499.000000	91.426506 
1498.000000	91.428245 
1497.000000	91.431369 
1496.000000	91.433775 
1495.000000	91.433586 
1494.000000	91.430433 
1493.000000	91.425920 
1492.000000	91.422196 
1491.000000	91.420798 
1490.000000	91.421816 
1489.000000	91.424852 
1488.000000	91.430366 
1487.000000	91.438055 
1486.000000	91.446241 
1485.000000	91.452879 
1484.000000	91.455687 
1483.000000	91.453721 
1482.000000	91.449149 
1481.000000	91.445611 
1480.000000	91.443746 
1479.000000	91.439651 
1478.000000	91.429931 
1477.000000	91.417293 
1476.000000	91.408862 
1475.000000	91.406967 
1474.000000	91.406111 
1473.000000	91.401172 
1472.000000	91.394425 
1471.000000	91.390606 
1470.000000	91.389303 
1469.000000	91.386909 
1468.000000	91.380900 
1467.000000	91.371199 
1466.000000	91.360319 
1465.000000	91.352364 
1464.000000	91.348278 
1463.000000	91.344506 
1462.000000	91.337930 
1461.000000	91.328737 
1460.000000	91.319204 
1459.000000	91.311797 
1458.000000	91.306638 
1457.000000	91.300552 
1456.000000	91.292009 
1455.000000	91.284690 
1454.000000	91.281952 
1453.000000	91.282587 
1452.000000	91.282830 
1451.000000	91.279683 
1450.000000	91.272308 
1449.000000	91.262382 
1448.000000	91.254306 
1447.000000	91.251491 
1446.000000	91.252542 
1445.000000	91.253128 
1444.000000	91.249807 
1443.000000	91.242932 
1442.000000	91.235303 
1441.000000	91.228543 
1440.000000	91.222670 
1439.000000	91.217790 
1438.000000	91.213386 
1437.000000	91.208098 
1436.000000	91.202793 
1435.000000	91.200600 
1434.000000	91.203202 
1433.000000	91.209360 
1432.000000	91.215004 
1431.000000	91.215895 
1430.000000	91.210639 
1429.000000	91.201108 
1428.000000	91.191810 
1427.000000	91.187242 
1426.000000	91.189358 
1425.000000	91.195862 
1424.000000	91.201378 
1423.000000	91.203542 
1422.000000	91.205288 
1421.000000	91.210976 
1420.000000	91.222882 
1419.000000	91.239833 
1418.000000	91.256412 
1417.000000	91.269038 
1416.000000	91.280384 
1415.000000	91.293743 
1414.000000	91.309381 
1413.000000	91.324738 
1412.000000	91.336329 
1411.000000	91.343364 
1410.000000	91.348661 
1409.000000	91.355774 
1408.000000	91.365501 
1407.000000	91.374775 
1406.000000	91.379833 
1405.000000	91.379814 
1404.000000	91.377223 
1403.000000	91.376035 
1402.000000	91.377851 
1401.000000	91.379553 
1400.000000	91.374792 
1399.000000	91.361610 
1398.000000	91.349007 
1397.000000	91.349811 
1396.000000	91.366500 
1395.000000	91.384752 
1394.000000	91.384476 
1393.000000	91.360403 
1392.000000	91.325182 
1391.000000	91.292984 
1390.000000	91.267378 
1389.000000	91.242587 
1388.000000	91.212147 
1387.000000	91.176628 
1386.000000	91.141144 
1385.000000	91.106388 
1384.000000	91.067903 
1383.000000	91.023788 
1382.000000	90.978453 
1381.000000	90.938165 
1380.000000	90.905368 
1379.000000	90.878807 
1378.000000	90.856416 
1377.000000	90.835952 
1376.000000	90.815294 
1375.000000	90.794538 
1374.000000	90.776271 
1373.000000	90.761675 
1372.000000	90.749670 
1371.000000	90.740701 
1370.000000	90.736278 
1369.000000	90.732670 
1368.000000	90.720821 
1367.000000	90.698789 
1366.000000	90.679488 
1365.000000	90.679913 
1364.000000	90.704878 
1363.000000	90.743115 
1362.000000	90.780447 
1361.000000	90.813520 
1360.000000	90.843852 
1359.000000	90.866137 
1358.000000	90.872349 
1357.000000	90.863480 
1356.000000	90.850575 
1355.000000	90.844256 
1354.000000	90.847198 
1353.000000	90.856919 
1352.000000	90.871167 
1351.000000	90.888985 
1350.000000	90.910688 
1349.000000	90.937735 
1348.000000	90.970417 
1347.000000	91.005844 
1346.000000	91.040109 
1345.000000	91.072807 
1344.000000	91.107188 
1343.000000	91.145319 
1342.000000	91.184791 
1341.000000	91.220161 
1340.000000	91.246336 
1339.000000	91.261720 
1338.000000	91.270052 
1337.000000	91.278503 
1336.000000	91.292177 
1335.000000	91.310163 
1334.000000	91.327877 
1333.000000	91.343139 
1332.000000	91.358126 
1331.000000	91.374768 
1330.000000	91.390177 
1329.000000	91.398498 
1328.000000	91.396940 
1327.000000	91.389084 
1326.000000	91.382452 
1325.000000	91.382775 
1324.000000	91.390559 
1323.000000	91.402391 
1322.000000	91.414246 
1321.000000	91.423539 
1320.000000	91.428968 
1319.000000	91.430196 
1318.000000	91.428758 
1317.000000	91.428031 
1316.000000	91.430508 
1315.000000	91.435042 
1314.000000	91.437687 
1313.000000	91.435565 
1312.000000	91.429627 
1311.000000	91.423782 
1310.000000	91.421752 
1309.000000	91.424528 
1308.000000	91.429918 
1307.000000	91.434493 
1306.000000	91.436946 
1305.000000	91.439240 
1304.000000	91.443871 
1303.000000	91.450544 
1302.000000	91.456509 
1301.000000	91.459834 
1300.000000	91.460915 
1299.000000	91.460765 
1298.000000	91.459341 
1297.000000	91.456223 
1296.000000	91.451897 
1295.000000	91.447716 
1294.000000	91.445151 
1293.000000	91.445272 
1292.000000	91.448038 
1291.000000	91.451471 
1290.000000	91.452323 
1289.000000	91.448444 
1288.000000	91.440419 
1287.000000	91.430965 
1286.000000	91.423252 
1285.000000	91.419451 
1284.000000	91.419504 
1283.000000	91.420624 
1282.000000	91.419153 
1281.000000	91.414083 
1280.000000	91.408502 
1279.000000	91.407246 
1278.000000	91.413091 
1277.000000	91.424516 
1276.000000	91.436076 
1275.000000	91.441680 
1274.000000	91.439641 
1273.000000	91.434598 
1272.000000	91.432565 
1271.000000	91.433999 
1270.000000	91.434364 
1269.000000	91.432048 
1268.000000	91.431883 
1267.000000	91.438618 
1266.000000	91.449826 
1265.000000	91.458579 
1264.000000	91.461365 
1263.000000	91.460016 
1262.000000	91.457005 
1261.000000	91.452615 
1260.000000	91.447122 
1259.000000	91.442125 
1258.000000	91.438154 
1257.000000	91.433639 
1256.000000	91.427451 
1255.000000	91.420347 
1254.000000	91.412862 
1253.000000	91.403539 
1252.000000	91.390701 
1251.000000	91.374926 
1250.000000	91.358215 
1249.000000	91.341006 
1248.000000	91.321230 
1247.000000	91.296693 
1246.000000	91.267827 
1245.000000	91.237293 
1244.000000	91.206218 
1243.000000	91.171237 
1242.000000	91.127095 
1241.000000	91.073051 
1240.000000	91.014963 
1239.000000	90.959219 
1238.000000	90.905723 
1237.000000	90.849250 
1236.000000	90.787047 
1235.000000	90.722375 
1234.000000	90.660538 
1233.000000	90.604138 
1232.000000	90.553090 
1231.000000	90.507155 
1230.000000	90.467463 
1229.000000	90.436707 
1228.000000	90.417545 
1227.000000	90.409101 
1226.000000	90.405755 
1225.000000	90.401359 
1224.000000	90.392809 
1223.000000	90.375944 
1222.000000	90.340195 
1221.000000	90.274132 
1220.000000	90.178927 
1219.000000	90.073871 
1218.000000	89.984836 
1217.000000	89.927209 
1216.000000	89.901120 
1215.000000	89.896535 
1214.000000	89.898480 
1213.000000	89.892037 
1212.000000	89.868743 
1211.000000	89.829883 
1210.000000	89.782513 
1209.000000	89.732398 
1208.000000	89.681472 
1207.000000	89.630035 
1206.000000	89.578622 
1205.000000	89.528496 
1204.000000	89.482403 
1203.000000	89.443869 
1202.000000	89.413703 
1201.000000	89.388530 
1200.000000	89.365074 
1199.000000	89.344577 
1198.000000	89.330354 
1197.000000	89.321898 
1196.000000	89.314030 
1195.000000	89.301611 
1194.000000	89.283116 
1193.000000	89.259909 
1192.000000	89.234139 
1191.000000	89.207693 
1190.000000	89.181642 
1189.000000	89.155864 
1188.000000	89.129176 
1187.000000	89.099494 
1186.000000	89.064366 
1185.000000	89.023033 
1184.000000	88.978023 
1183.000000	88.932739 
1182.000000	88.887019 
1181.000000	88.837314 
1180.000000	88.781689 
1179.000000	88.721824 
1178.000000	88.659059 
1177.000000	88.591558 
1176.000000	88.517226 
1175.000000	88.437191 
1174.000000	88.354712 
1173.000000	88.272385 
1172.000000	88.191671 
1171.000000	88.112699 
1170.000000	88.033082 
1169.000000	87.949861 
1168.000000	87.864367 
1167.000000	87.782877 
1166.000000	87.711864 
1165.000000	87.656137 
1164.000000	87.621887 
1163.000000	87.615716 
1162.000000	87.637290 
1161.000000	87.676061 
1160.000000	87.717413 
1159.000000	87.749619 
1158.000000	87.764613 
1157.000000	87.757299 
1156.000000	87.727557 
1155.000000	87.680822 
1154.000000	87.624501 
1153.000000	87.564570 
1152.000000	87.504769 
1151.000000	87.445113 
1150.000000	87.380966 
1149.000000	87.308481 
1148.000000	87.231954 
1147.000000	87.160947 
1146.000000	87.098824 
1145.000000	87.039479 
1144.000000	86.976845 
1143.000000	86.911371 
1142.000000	86.844988 
1141.000000	86.776227 
1140.000000	86.703828 
1139.000000	86.629658 
1138.000000	86.554672 
1137.000000	86.477372 
1136.000000	86.399302 
1135.000000	86.325889 
1134.000000	86.257904 
1133.000000	86.188072 
1132.000000	86.110556 
1131.000000	86.028362 
1130.000000	85.947511 
1129.000000	85.869770 
1128.000000	85.795260 
1127.000000	85.725390 
1126.000000	85.657641 
1125.000000	85.583920 
1124.000000	85.500651 
1123.000000	85.415359 
1122.000000	85.336809 
1121.000000	85.263521 
1120.000000	85.188756 
1119.000000	85.112228 
1118.000000	85.039401 
1117.000000	84.972216 
1116.000000	84.907208 
1115.000000	84.840748 
1114.000000	84.771132 
1113.000000	84.697994 
1112.000000	84.624109 
1111.000000	84.555306 
1110.000000	84.495017 
1109.000000	84.441291 
1108.000000	84.390811 
1107.000000	84.341028 
1106.000000	84.286705 
1105.000000	84.221545 
1104.000000	84.147569 
1103.000000	84.076578 
1102.000000	84.017280 
1101.000000	83.965848 
1100.000000	83.913421 
1099.000000	83.856276 
1098.000000	83.794716 
1097.000000	83.728302 
1096.000000	83.658691 
1095.000000	83.593257 
1094.000000	83.539850 
1093.000000	83.500152 
1092.000000	83.470644 
1091.000000	83.446040 
1090.000000	83.420204 
1089.000000	83.389739 
1088.000000	83.359246 
1087.000000	83.337184 
1086.000000	83.324280 
1085.000000	83.312346 
1084.000000	83.296381 
1083.000000	83.279906 
1082.000000	83.265663 
1081.000000	83.249863 
1080.000000	83.230120 
1079.000000	83.210846 
1078.000000	83.195233 
1077.000000	83.178952 
1076.000000	83.157107 
1075.000000	83.130133 
1074.000000	83.096732 
1073.000000	83.048054 
1072.000000	82.977042 
1071.000000	82.889958 
1070.000000	82.802130 
1069.000000	82.723107 
1068.000000	82.648397 
1067.000000	82.562497 
1066.000000	82.448661 
1065.000000	82.301914 
1064.000000	82.136428 
1063.000000	81.976137 
1062.000000	81.835333 
1061.000000	81.712514 
1060.000000	81.601993 
1059.000000	81.501238 
1058.000000	81.404679 
1057.000000	81.301888 
1056.000000	81.188611 
1055.000000	81.072185 
1054.000000	80.960685 
1053.000000	80.853337 
1052.000000	80.746093 
1051.000000	80.638808 
1050.000000	80.531165 
1049.000000	80.419058 
1048.000000	80.300454 
1047.000000	80.177584 
1046.000000	80.050263 
1045.000000	79.915606 
1044.000000	79.776510 
1043.000000	79.641038 
1042.000000	79.510814 
1041.000000	79.379503 
1040.000000	79.245503 
1039.000000	79.115816 
1038.000000	78.994200 
1037.000000	78.877041 
1036.000000	78.765145 
1035.000000	78.667102 
1034.000000	78.584628 
1033.000000	78.506590 
1032.000000	78.425872 
1031.000000	78.352653 
1030.000000	78.302216 
1029.000000	78.276701 
1028.000000	78.265193 
1027.000000	78.255040 
1026.000000	78.238027 
1025.000000	78.212224 
1024.000000	78.183476 
1023.000000	78.160759 
1022.000000	78.147024 
1021.000000	78.138810 
1020.000000	78.134575 
1019.000000	78.135975 
1018.000000	78.140936 
1017.000000	78.143753 
1016.000000	78.142020 
1015.000000	78.135191 
1014.000000	78.117965 
1013.000000	78.086116 
1012.000000	78.048582 
1011.000000	78.021932 
1010.000000	78.011660 
1009.000000	78.009990 
1008.000000	78.012193 
1007.000000	78.021700 
1006.000000	78.037184 
1005.000000	78.048877 
1004.000000	78.052870 
1003.000000	78.057777 
1002.000000	78.072580 
1001.000000	78.097754 
1000.000000	78.131160 
999.000000	 78.171763 
998.000000	 78.214405 
997.000000	 78.252125 
996.000000	 78.287534 
995.000000	 78.331662 
994.000000	 78.388517 
993.000000	 78.450934 
992.000000	 78.513731 
991.000000	 78.579641 
990.000000	 78.649525 
989.000000	 78.718949 
988.000000	 78.788210 
987.000000	 78.863936 
986.000000	 78.946669 
985.000000	 79.029069 
984.000000	 79.111314 
983.000000	 79.205723 
982.000000	 79.319399 
981.000000	 79.443467 
980.000000	 79.566935 
979.000000	 79.692044 
978.000000	 79.828265 
977.000000	 79.978954 
976.000000	 80.140578 
975.000000	 80.307908 
974.000000	 80.473860 
973.000000	 80.630987 
972.000000	 80.779746 
971.000000	 80.930538 
970.000000	 81.092464 
969.000000	 81.264115 
968.000000	 81.438724 
967.000000	 81.612876 
966.000000	 81.786064 
965.000000	 81.956551 
964.000000	 82.122013 
963.000000	 82.281049 
962.000000	 82.431501 
961.000000	 82.571318 
960.000000	 82.703788 
959.000000	 82.838131 
958.000000	 82.981784 
957.000000	 83.133809 
956.000000	 83.286134 
955.000000	 83.427706 
954.000000	 83.548216 
953.000000	 83.644122 
952.000000	 83.723112 
951.000000	 83.798009 
950.000000	 83.874264 
949.000000	 83.947910 
948.000000	 84.016892 
947.000000	 84.087575 
946.000000	 84.166501 
945.000000	 84.250923 
944.000000	 84.331654 
943.000000	 84.401565 
942.000000	 84.458633 
941.000000	 84.505432 
940.000000	 84.549210 
939.000000	 84.598038 
938.000000	 84.652282 
937.000000	 84.703347 
936.000000	 84.745251 
935.000000	 84.784127 
934.000000	 84.831378 
933.000000	 84.889561 
932.000000	 84.950213 
931.000000	 85.004622 
930.000000	 85.052080 
929.000000	 85.097478 
928.000000	 85.144810 
927.000000	 85.194768 
926.000000	 85.246446 
925.000000	 85.298717 
924.000000	 85.348785 
923.000000	 85.390340 
922.000000	 85.416695 
921.000000	 85.429105 
920.000000	 85.440355 
919.000000	 85.465116 
918.000000	 85.505580 
917.000000	 85.550463 
916.000000	 85.589869 
915.000000	 85.627209 
914.000000	 85.673644 
913.000000	 85.734516 
912.000000	 85.805286 
911.000000	 85.878980 
910.000000	 85.954403 
909.000000	 86.037336 
908.000000	 86.135529 
907.000000	 86.251967 
906.000000	 86.381200 
905.000000	 86.512175 
904.000000	 86.635781 
903.000000	 86.750401 
902.000000	 86.861226 
901.000000	 86.975237 
900.000000	 87.096172 
899.000000	 87.222244 
898.000000	 87.348066 
897.000000	 87.469680 
896.000000	 87.588323 
895.000000	 87.708821 
894.000000	 87.833406 
893.000000	 87.956992 
892.000000	 88.069524 
891.000000	 88.164494 
890.000000	 88.245437 
889.000000	 88.322335 
888.000000	 88.400753 
887.000000	 88.476882 
886.000000	 88.545234 
885.000000	 88.608680 
884.000000	 88.677050 
883.000000	 88.756544 
882.000000	 88.844210 
881.000000	 88.932653 
880.000000	 89.015949 
879.000000	 89.090831 
878.000000	 89.158295 
877.000000	 89.227148 
876.000000	 89.310538 
875.000000	 89.412842 
874.000000	 89.521520 
873.000000	 89.617100 
872.000000	 89.691114 
871.000000	 89.751232 
870.000000	 89.810416 
869.000000	 89.875215 
868.000000	 89.944882 
867.000000	 90.017067 
866.000000	 90.091071 
865.000000	 90.167617 
864.000000	 90.248208 
863.000000	 90.333724 
862.000000	 90.421271 
861.000000	 90.502988 
860.000000	 90.570654 
859.000000	 90.622224 
858.000000	 90.662265 
857.000000	 90.696387 
856.000000	 90.728371 
855.000000	 90.762654 
854.000000	 90.804026 
853.000000	 90.851559 
852.000000	 90.897438 
851.000000	 90.936503 
850.000000	 90.973142 
849.000000	 91.012741 
848.000000	 91.049440 
847.000000	 91.070723 
846.000000	 91.074115 
845.000000	 91.071444 
844.000000	 91.074989 
843.000000	 91.086413 
842.000000	 91.101015 
841.000000	 91.114545 
840.000000	 91.121103 
839.000000	 91.111227 
838.000000	 91.079257 
837.000000	 91.029759 
836.000000	 90.972225 
835.000000	 90.913318 
834.000000	 90.859063 
833.000000	 90.819765 
832.000000	 90.803963 
831.000000	 90.807304 
830.000000	 90.814745 
829.000000	 90.816449 
828.000000	 90.816023 
827.000000	 90.820182 
826.000000	 90.826739 
825.000000	 90.829585 
824.000000	 90.831603 
823.000000	 90.842524 
822.000000	 90.861936 
821.000000	 90.872711 
820.000000	 90.857032 
819.000000	 90.815785 
818.000000	 90.767309 
817.000000	 90.726133 
816.000000	 90.685723 
815.000000	 90.624468 
814.000000	 90.526971 
813.000000	 90.395113 
812.000000	 90.237070 
811.000000	 90.050621 
810.000000	 89.822925 
809.000000	 89.546441 
808.000000	 89.230040 
807.000000	 88.891220 
806.000000	 88.539967 
805.000000	 88.176355 
804.000000	 87.805325 
803.000000	 87.446553 
802.000000	 87.123807 
801.000000	 86.849129 
800.000000	 86.623477 
799.000000	 86.448227 
798.000000	 86.328419 
797.000000	 86.266941 
796.000000	 86.261833 
795.000000	 86.307873 
794.000000	 86.395411 
793.000000	 86.507832 
792.000000	 86.623899 
791.000000	 86.724167 
790.000000	 86.795842 
789.000000	 86.833698 
788.000000	 86.837918 
787.000000	 86.809802 
786.000000	 86.748037 
785.000000	 86.651147 
784.000000	 86.526123 
783.000000	 86.392037 
782.000000	 86.269676 
781.000000	 86.167652 
780.000000	 86.083351 
779.000000	 86.017010 
778.000000	 85.979189 
777.000000	 85.983218 
776.000000	 86.035056 
775.000000	 86.132044 
774.000000	 86.266549 
773.000000	 86.427130 
772.000000	 86.598819 
771.000000	 86.767085 
770.000000	 86.923084 
769.000000	 87.063909 
768.000000	 87.188473 
767.000000	 87.295610 
766.000000	 87.385150 
765.000000	 87.457502 
764.000000	 87.512872 
763.000000	 87.554374 
762.000000	 87.590921 
761.000000	 87.632871 
760.000000	 87.685194 
759.000000	 87.747918 
758.000000	 87.820530 
757.000000	 87.900086 
756.000000	 87.976859 
755.000000	 88.040093 
754.000000	 88.089522 
753.000000	 88.134861 
752.000000	 88.183655 
751.000000	 88.236933 
750.000000	 88.296438 
749.000000	 88.366286 
748.000000	 88.444034 
747.000000	 88.518971 
746.000000	 88.585273 
745.000000	 88.650198 
744.000000	 88.724110 
743.000000	 88.809257 
742.000000	 88.902476 
741.000000	 89.000011 
740.000000	 89.093435 
739.000000	 89.169137 
738.000000	 89.220953 
737.000000	 89.259340 
736.000000	 89.301580 
735.000000	 89.356997 
734.000000	 89.424507 
733.000000	 89.496326 
732.000000	 89.559363 
731.000000	 89.602247 
730.000000	 89.627217 
729.000000	 89.645945 
728.000000	 89.664578 
727.000000	 89.681334 
726.000000	 89.696612 
725.000000	 89.718277 
724.000000	 89.751740 
723.000000	 89.792461 
722.000000	 89.835529 
721.000000	 89.885412 
720.000000	 89.947895 
719.000000	 90.016656 
718.000000	 90.076547 
717.000000	 90.118242 
716.000000	 90.141756 
715.000000	 90.151367 
714.000000	 90.155604 
713.000000	 90.165898 
712.000000	 90.187262 
711.000000	 90.209811 
710.000000	 90.218432 
709.000000	 90.211887 
708.000000	 90.199333 
707.000000	 90.191436 
706.000000	 90.190183 
705.000000	 90.184829 
704.000000	 90.159568 
703.000000	 90.103246 
702.000000	 90.018088 
701.000000	 89.914196 
700.000000	 89.789549 
699.000000	 89.631553 
698.000000	 89.440116 
697.000000	 89.244522 
696.000000	 89.090258 
695.000000	 89.004638 
694.000000	 88.989886 
693.000000	 89.037082 
692.000000	 89.129299 
691.000000	 89.245014 
690.000000	 89.366308 
689.000000	 89.487188 
688.000000	 89.606172 
687.000000	 89.711583 
686.000000	 89.793681 
685.000000	 89.860005 
684.000000	 89.923595 
683.000000	 89.990757 
682.000000	 90.066115 
681.000000	 90.154493 
680.000000	 90.245877 
679.000000	 90.317288 
678.000000	 90.362035 
677.000000	 90.392568 
676.000000	 90.421723 
675.000000	 90.457069 
674.000000	 90.504031 
673.000000	 90.568364 
672.000000	 90.664249 
671.000000	 90.813491 
670.000000	 91.035803 
669.000000	 91.298065 
668.000000	 91.444025 
667.000000	 91.371179 
666.000000	 91.219764 
665.000000	 91.111613 
664.000000	 91.067421 
663.000000	 91.082551 
662.000000	 91.137370 
661.000000	 91.194887 
660.000000	 91.227127 
659.000000	 91.238178 
658.000000	 91.247919 
657.000000	 91.261644 
656.000000	 91.278140 
655.000000	 91.309566 
654.000000	 91.356159 
653.000000	 91.394404 
652.000000	 91.416881 
651.000000	 91.445108 
650.000000	 91.486976 

