PE IR                   SPECTRUM    ASCII       PEDS        1.60        
  -1
~SP.SP
22/12/06
16:13:49.00
23/01/09
15:05:38.00
Administrator

650.000000
4









FRONTIER FT-IR,CPU32 MAIN 00.09.9951 07-SEPTEMBER-2011 11:49:41
MIR TGS
MIR
OPTKBR
90694
0.200000

4.000000
STRONG
RATIO
SPECTRUM
MAGNITUDE
MIRACLE ATR
DOUBLE

COMBINED


0


#HDR
-1
-1
#GR
CM-1
%T
0.00002384185791015625
0.0
4000.000000
-1.000000
3351
8
100.414673
85.665900
#DATA
4000.000000	100.361653 
3999.000000	100.361268 
3998.000000	100.358570 
3997.000000	100.353359 
3996.000000	100.346757 
3995.000000	100.340592 
3994.000000	100.336139 
3993.000000	100.333699 
3992.000000	100.332741 
3991.000000	100.332512 
3990.000000	100.332700 
3989.000000	100.333387 
3988.000000	100.334431 
3987.000000	100.335110 
3986.000000	100.334571 
3985.000000	100.332592 
3984.000000	100.329679 
3983.000000	100.326639 
3982.000000	100.324059 
3981.000000	100.322149 
3980.000000	100.320806 
3979.000000	100.319663 
3978.000000	100.318252 
3977.000000	100.316223 
3976.000000	100.313559 
3975.000000	100.310628 
3974.000000	100.307988 
3973.000000	100.305961 
3972.000000	100.304393 
3971.000000	100.302932 
3970.000000	100.301406 
3969.000000	100.299895 
3968.000000	100.298453 
3967.000000	100.296911 
3966.000000	100.295007 
3965.000000	100.292662 
3964.000000	100.289989 
3963.000000	100.287146 
3962.000000	100.284275 
3961.000000	100.281536 
3960.000000	100.279142 
3959.000000	100.277270 
3958.000000	100.275899 
3957.000000	100.274761 
3956.000000	100.273427 
3955.000000	100.271608 
3954.000000	100.269337 
3953.000000	100.266850 
3952.000000	100.264352 
3951.000000	100.261900 
3950.000000	100.259476 
3949.000000	100.257074 
3948.000000	100.254691 
3947.000000	100.252313 
3946.000000	100.249951 
3945.000000	100.247671 
3944.000000	100.245540 
3943.000000	100.243526 
3942.000000	100.241445 
3941.000000	100.239137 
3940.000000	100.236580 
3939.000000	100.233909 
3938.000000	100.231331 
3937.000000	100.228938 
3936.000000	100.226671 
3935.000000	100.224459 
3934.000000	100.222333 
3933.000000	100.220280 
3932.000000	100.218067 
3931.000000	100.215418 
3930.000000	100.212396 
3929.000000	100.209466 
3928.000000	100.206998 
3927.000000	100.204904 
3926.000000	100.202820 
3925.000000	100.200478 
3924.000000	100.197806 
3923.000000	100.194840 
3922.000000	100.191742 
3921.000000	100.188805 
3920.000000	100.186206 
3919.000000	100.183870 
3918.000000	100.181758 
3917.000000	100.180027 
3916.000000	100.178744 
3915.000000	100.177621 
3914.000000	100.176386 
3913.000000	100.174908 
3912.000000	100.172954 
3911.000000	100.170233 
3910.000000	100.166842 
3909.000000	100.163605 
3908.000000	100.161480 
3907.000000	100.160732 
3906.000000	100.160634 
3905.000000	100.159839 
3904.000000	100.157439 
3903.000000	100.153588 
3902.000000	100.149182 
3901.000000	100.145181 
3900.000000	100.141959 
3899.000000	100.139282 
3898.000000	100.136871 
3897.000000	100.134712 
3896.000000	100.133050 
3895.000000	100.132038 
3894.000000	100.131458 
3893.000000	100.130812 
3892.000000	100.129737 
3891.000000	100.128198 
3890.000000	100.126185 
3889.000000	100.123619 
3888.000000	100.120712 
3887.000000	100.118098 
3886.000000	100.116308 
3885.000000	100.114995 
3884.000000	100.113255 
3883.000000	100.110886 
3882.000000	100.108649 
3881.000000	100.107269 
3880.000000	100.106624 
3879.000000	100.105959 
3878.000000	100.104788 
3877.000000	100.103280 
3876.000000	100.101877 
3875.000000	100.100773 
3874.000000	100.099587 
3873.000000	100.097688 
3872.000000	100.095093 
3871.000000	100.092819 
3870.000000	100.091813 
3869.000000	100.091475 
3868.000000	100.090107 
3867.000000	100.087159 
3866.000000	100.084123 
3865.000000	100.082753 
3864.000000	100.082960 
3863.000000	100.083016 
3862.000000	100.081823 
3861.000000	100.079888 
3860.000000	100.078479 
3859.000000	100.078547 
3858.000000	100.080126 
3857.000000	100.082031 
3856.000000	100.082165 
3855.000000	100.079416 
3854.000000	100.074959 
3853.000000	100.070698 
3852.000000	100.066835 
3851.000000	100.062995 
3850.000000	100.059646 
3849.000000	100.057255 
3848.000000	100.055419 
3847.000000	100.053403 
3846.000000	100.051010 
3845.000000	100.048627 
3844.000000	100.046732 
3843.000000	100.045321 
3842.000000	100.043916 
3841.000000	100.042177 
3840.000000	100.040148 
3839.000000	100.037932 
3838.000000	100.035511 
3837.000000	100.032958 
3836.000000	100.030550 
3835.000000	100.028527 
3834.000000	100.026863 
3833.000000	100.025343 
3832.000000	100.023759 
3831.000000	100.022026 
3830.000000	100.020193 
3829.000000	100.018342 
3828.000000	100.016507 
3827.000000	100.014662 
3826.000000	100.012769 
3825.000000	100.010827 
3824.000000	100.008837 
3823.000000	100.006787 
3822.000000	100.004691 
3821.000000	100.002558 
3820.000000	100.000379 
3819.000000	99.998133  
3818.000000	99.995824  
3817.000000	99.993484  
3816.000000	99.991147  
3815.000000	99.988821  
3814.000000	99.986501  
3813.000000	99.984200  
3812.000000	99.981948  
3811.000000	99.979766  
3810.000000	99.977653  
3809.000000	99.975602  
3808.000000	99.973607  
3807.000000	99.971666  
3806.000000	99.969759  
3805.000000	99.967854  
3804.000000	99.965926  
3803.000000	99.963966  
3802.000000	99.961974  
3801.000000	99.959944  
3800.000000	99.957865  
3799.000000	99.955749  
3798.000000	99.953628  
3797.000000	99.951531  
3796.000000	99.949456  
3795.000000	99.947372  
3794.000000	99.945263  
3793.000000	99.943110  
3792.000000	99.940896  
3791.000000	99.938635  
3790.000000	99.936339  
3789.000000	99.933984  
3788.000000	99.931514  
3787.000000	99.928906  
3786.000000	99.926241  
3785.000000	99.923714  
3784.000000	99.921386  
3783.000000	99.918958  
3782.000000	99.916087  
3781.000000	99.912940  
3780.000000	99.910225  
3779.000000	99.908472  
3778.000000	99.907331  
3777.000000	99.906033  
3776.000000	99.904323  
3775.000000	99.902449  
3774.000000	99.900575  
3773.000000	99.898573  
3772.000000	99.896530  
3771.000000	99.894799  
3770.000000	99.893269  
3769.000000	99.891230  
3768.000000	99.888273  
3767.000000	99.884818  
3766.000000	99.881674  
3765.000000	99.879149  
3764.000000	99.876844  
3763.000000	99.874234  
3762.000000	99.871408  
3761.000000	99.868917  
3760.000000	99.866954  
3759.000000	99.865237  
3758.000000	99.863511  
3757.000000	99.861762  
3756.000000	99.859914  
3755.000000	99.857797  
3754.000000	99.855384  
3753.000000	99.852862  
3752.000000	99.850358  
3751.000000	99.847834  
3750.000000	99.845303  
3749.000000	99.842813  
3748.000000	99.840302  
3747.000000	99.837682  
3746.000000	99.834963  
3745.000000	99.832348  
3744.000000	99.830030  
3743.000000	99.827648  
3742.000000	99.824614  
3741.000000	99.820970  
3740.000000	99.817534  
3739.000000	99.814920  
3738.000000	99.812981  
3737.000000	99.811081  
3736.000000	99.808662  
3735.000000	99.805226  
3734.000000	99.800883  
3733.000000	99.797233  
3732.000000	99.796280  
3731.000000	99.798098  
3730.000000	99.800161  
3729.000000	99.799995  
3728.000000	99.797541  
3727.000000	99.794595  
3726.000000	99.792200  
3725.000000	99.789679  
3724.000000	99.786783  
3723.000000	99.784099  
3722.000000	99.781756  
3721.000000	99.779469  
3720.000000	99.777229  
3719.000000	99.775625  
3718.000000	99.775320  
3717.000000	99.775729  
3716.000000	99.774751  
3715.000000	99.771303  
3714.000000	99.767856  
3713.000000	99.767950  
3712.000000	99.770170  
3711.000000	99.768975  
3710.000000	99.762783  
3709.000000	99.755337  
3708.000000	99.749595  
3707.000000	99.744530  
3706.000000	99.737476  
3705.000000	99.728554  
3704.000000	99.722466  
3703.000000	99.725280  
3702.000000	99.738551  
3701.000000	99.757464  
3700.000000	99.774861  
3699.000000	99.787104  
3698.000000	99.797136  
3697.000000	99.810173  
3696.000000	99.826140  
3695.000000	99.839707  
3694.000000	99.847713  
3693.000000	99.851462  
3692.000000	99.850868  
3691.000000	99.841172  
3690.000000	99.820516  
3689.000000	99.799886  
3688.000000	99.794153  
3687.000000	99.803261  
3686.000000	99.815704  
3685.000000	99.824673  
3684.000000	99.830081  
3683.000000	99.832481  
3682.000000	99.831021  
3681.000000	99.828153  
3680.000000	99.829315  
3679.000000	99.833476  
3678.000000	99.833332  
3677.000000	99.828418  
3676.000000	99.828350  
3675.000000	99.833864  
3674.000000	99.829797  
3673.000000	99.806262  
3672.000000	99.771620  
3671.000000	99.743971  
3670.000000	99.730533  
3669.000000	99.720525  
3668.000000	99.704527  
3667.000000	99.685956  
3666.000000	99.672172  
3665.000000	99.665472  
3664.000000	99.662460  
3663.000000	99.659525  
3662.000000	99.655272  
3661.000000	99.648336  
3660.000000	99.635111  
3659.000000	99.612070  
3658.000000	99.581060  
3657.000000	99.550276  
3656.000000	99.526205  
3655.000000	99.505544  
3654.000000	99.481125  
3653.000000	99.452869  
3652.000000	99.427898  
3651.000000	99.410524  
3650.000000	99.394093  
3649.000000	99.369283  
3648.000000	99.338751  
3647.000000	99.310509  
3646.000000	99.287047  
3645.000000	99.268256  
3644.000000	99.255704  
3643.000000	99.250195  
3642.000000	99.246309  
3641.000000	99.233752  
3640.000000	99.206882  
3639.000000	99.171418  
3638.000000	99.138919  
3637.000000	99.116523  
3636.000000	99.104991  
3635.000000	99.102959  
3634.000000	99.107585  
3633.000000	99.111697  
3632.000000	99.106941  
3631.000000	99.090642  
3630.000000	99.068240  
3629.000000	99.045239  
3628.000000	99.019827  
3627.000000	98.990569  
3626.000000	98.962809  
3625.000000	98.943234  
3624.000000	98.932016  
3623.000000	98.923328  
3622.000000	98.913766  
3621.000000	98.907972  
3620.000000	98.911764  
3619.000000	98.923218  
3618.000000	98.935125  
3617.000000	98.942981  
3616.000000	98.947839  
3615.000000	98.954175  
3614.000000	98.964836  
3613.000000	98.976889  
3612.000000	98.983626  
3611.000000	98.981885  
3610.000000	98.977451  
3609.000000	98.980019  
3608.000000	98.992060  
3607.000000	99.006635  
3606.000000	99.016095  
3605.000000	99.019806  
3604.000000	99.022269  
3603.000000	99.027270  
3602.000000	99.034820  
3601.000000	99.042765  
3600.000000	99.048773  
3599.000000	99.053004  
3598.000000	99.059240  
3597.000000	99.070534  
3596.000000	99.085487  
3595.000000	99.099095  
3594.000000	99.106404  
3593.000000	99.105961  
3592.000000	99.100545  
3591.000000	99.095132  
3590.000000	99.095142  
3589.000000	99.102922  
3588.000000	99.114126  
3587.000000	99.121028  
3586.000000	99.120988  
3585.000000	99.117525  
3584.000000	99.114214  
3583.000000	99.111165  
3582.000000	99.107134  
3581.000000	99.102542  
3580.000000	99.099342  
3579.000000	99.098510  
3578.000000	99.099618  
3577.000000	99.102381  
3576.000000	99.107311  
3575.000000	99.114475  
3574.000000	99.122015  
3573.000000	99.126877  
3572.000000	99.127298  
3571.000000	99.124081  
3570.000000	99.119820  
3569.000000	99.117191  
3568.000000	99.116638  
3567.000000	99.116147  
3566.000000	99.114539  
3565.000000	99.113495  
3564.000000	99.115337  
3563.000000	99.120507  
3562.000000	99.127151  
3561.000000	99.132620  
3560.000000	99.135385  
3559.000000	99.135339  
3558.000000	99.133199  
3557.000000	99.130326  
3556.000000	99.128567  
3555.000000	99.129399  
3554.000000	99.132680  
3553.000000	99.136078  
3552.000000	99.136572  
3551.000000	99.133000  
3550.000000	99.127057  
3549.000000	99.121899  
3548.000000	99.119307  
3547.000000	99.118318  
3546.000000	99.117045  
3545.000000	99.115494  
3544.000000	99.115593  
3543.000000	99.118547  
3542.000000	99.123292  
3541.000000	99.127683  
3540.000000	99.130526  
3539.000000	99.132320  
3538.000000	99.134359  
3537.000000	99.137372  
3536.000000	99.141027  
3535.000000	99.144585  
3534.000000	99.147871  
3533.000000	99.151368  
3532.000000	99.155274  
3531.000000	99.158850  
3530.000000	99.161065  
3529.000000	99.161738  
3528.000000	99.161511  
3527.000000	99.160645  
3526.000000	99.158729  
3525.000000	99.155906  
3524.000000	99.153588  
3523.000000	99.153293  
3522.000000	99.155205  
3521.000000	99.158415  
3520.000000	99.162328  
3519.000000	99.167104  
3518.000000	99.172606  
3517.000000	99.177627  
3516.000000	99.180718  
3515.000000	99.181523  
3514.000000	99.181018  
3513.000000	99.180811  
3512.000000	99.182338  
3511.000000	99.186280  
3510.000000	99.192201  
3509.000000	99.198506  
3508.000000	99.203222  
3507.000000	99.205451  
3506.000000	99.205902  
3505.000000	99.206250  
3504.000000	99.207744  
3503.000000	99.210341  
3502.000000	99.213292  
3501.000000	99.216107  
3500.000000	99.218797  
3499.000000	99.221412  
3498.000000	99.223735  
3497.000000	99.225533  
3496.000000	99.226909  
3495.000000	99.228279  
3494.000000	99.230051  
3493.000000	99.232425  
3492.000000	99.235423  
3491.000000	99.238873  
3490.000000	99.242355  
3489.000000	99.245353  
3488.000000	99.247582  
3487.000000	99.249155  
3486.000000	99.250469  
3485.000000	99.251909  
3484.000000	99.253521  
3483.000000	99.254920  
3482.000000	99.255689  
3481.000000	99.255980  
3480.000000	99.256575  
3479.000000	99.258102  
3478.000000	99.260324  
3477.000000	99.262349  
3476.000000	99.263550  
3475.000000	99.264220  
3474.000000	99.265187  
3473.000000	99.266834  
3472.000000	99.268779  
3471.000000	99.270433  
3470.000000	99.271586  
3469.000000	99.272375  
3468.000000	99.273046  
3467.000000	99.273914  
3466.000000	99.275327  
3465.000000	99.277384  
3464.000000	99.279653  
3463.000000	99.281368  
3462.000000	99.282092  
3461.000000	99.282054  
3460.000000	99.282009  
3459.000000	99.282572  
3458.000000	99.283783  
3457.000000	99.285249  
3456.000000	99.286626  
3455.000000	99.287935  
3454.000000	99.289344  
3453.000000	99.290819  
3452.000000	99.292152  
3451.000000	99.293320  
3450.000000	99.294560  
3449.000000	99.296046  
3448.000000	99.297701  
3447.000000	99.299437  
3446.000000	99.301291  
3445.000000	99.303117  
3444.000000	99.304410  
3443.000000	99.304760  
3442.000000	99.304403  
3441.000000	99.304046  
3440.000000	99.304017  
3439.000000	99.303986  
3438.000000	99.303625  
3437.000000	99.303274  
3436.000000	99.303692  
3435.000000	99.305083  
3434.000000	99.306657  
3433.000000	99.307295  
3432.000000	99.306654  
3431.000000	99.305472  
3430.000000	99.304822  
3429.000000	99.305164  
3428.000000	99.306277  
3427.000000	99.307824  
3426.000000	99.309610  
3425.000000	99.311245  
3424.000000	99.312023  
3423.000000	99.311498  
3422.000000	99.310114  
3421.000000	99.308998  
3420.000000	99.309192  
3419.000000	99.311144  
3418.000000	99.314523  
3417.000000	99.318085  
3416.000000	99.320079  
3415.000000	99.319567  
3414.000000	99.317289  
3413.000000	99.314919  
3412.000000	99.313182  
3411.000000	99.311299  
3410.000000	99.308468  
3409.000000	99.305190  
3408.000000	99.302780  
3407.000000	99.301963  
3406.000000	99.302423  
3405.000000	99.303308  
3404.000000	99.303716  
3403.000000	99.302898  
3402.000000	99.300703  
3401.000000	99.298108  
3400.000000	99.296782  
3399.000000	99.297627  
3398.000000	99.299875  
3397.000000	99.301697  
3396.000000	99.301851  
3395.000000	99.300504  
3394.000000	99.298625  
3393.000000	99.297090  
3392.000000	99.296354  
3391.000000	99.296511  
3390.000000	99.297283  
3389.000000	99.298084  
3388.000000	99.298501  
3387.000000	99.298716  
3386.000000	99.299173  
3385.000000	99.299765  
3384.000000	99.299654  
3383.000000	99.298099  
3382.000000	99.295259  
3381.000000	99.292015  
3380.000000	99.289159  
3379.000000	99.286902  
3378.000000	99.285075  
3377.000000	99.283546  
3376.000000	99.282412  
3375.000000	99.281880  
3374.000000	99.281960  
3373.000000	99.282182  
3372.000000	99.281720  
3371.000000	99.280044  
3370.000000	99.277422  
3369.000000	99.274768  
3368.000000	99.272824  
3367.000000	99.271474  
3366.000000	99.269986  
3365.000000	99.267888  
3364.000000	99.265541  
3363.000000	99.263760  
3362.000000	99.262844  
3361.000000	99.262036  
3360.000000	99.260182  
3359.000000	99.257005  
3358.000000	99.253522  
3357.000000	99.250988  
3356.000000	99.249412  
3355.000000	99.247449  
3354.000000	99.243846  
3353.000000	99.238708  
3352.000000	99.233406  
3351.000000	99.229334  
3350.000000	99.226977  
3349.000000	99.225974  
3348.000000	99.225465  
3347.000000	99.224442  
3346.000000	99.222296  
3345.000000	99.219275  
3344.000000	99.216315  
3343.000000	99.214024  
3342.000000	99.211943  
3341.000000	99.209139  
3340.000000	99.205419  
3339.000000	99.201490  
3338.000000	99.197883  
3337.000000	99.194245  
3336.000000	99.190072  
3335.000000	99.185771  
3334.000000	99.182316  
3333.000000	99.179955  
3332.000000	99.177893  
3331.000000	99.175439  
3330.000000	99.172887  
3329.000000	99.170710  
3328.000000	99.168311  
3327.000000	99.164464  
3326.000000	99.159057  
3325.000000	99.153484  
3324.000000	99.149007  
3323.000000	99.145251  
3322.000000	99.140920  
3321.000000	99.135560  
3320.000000	99.129988  
3319.000000	99.125063  
3318.000000	99.120700  
3317.000000	99.116356  
3316.000000	99.111915  
3315.000000	99.107620  
3314.000000	99.103376  
3313.000000	99.098669  
3312.000000	99.093269  
3311.000000	99.087642  
3310.000000	99.082398  
3309.000000	99.077591  
3308.000000	99.072806  
3307.000000	99.067732  
3306.000000	99.062388  
3305.000000	99.056923  
3304.000000	99.051563  
3303.000000	99.046711  
3302.000000	99.042737  
3301.000000	99.039467  
3300.000000	99.036000  
3299.000000	99.031360  
3298.000000	99.025310  
3297.000000	99.018427  
3296.000000	99.011576  
3295.000000	99.005252  
3294.000000	98.999454  
3293.000000	98.993981  
3292.000000	98.988740  
3291.000000	98.983817  
3290.000000	98.979227  
3289.000000	98.974597  
3288.000000	98.969312  
3287.000000	98.963093  
3286.000000	98.956414  
3285.000000	98.950258  
3284.000000	98.945255  
3283.000000	98.941239  
3282.000000	98.937545  
3281.000000	98.933619  
3280.000000	98.929195  
3279.000000	98.924025  
3278.000000	98.917837  
3277.000000	98.910702  
3276.000000	98.903281  
3275.000000	98.896502  
3274.000000	98.890972  
3273.000000	98.886740  
3272.000000	98.883334  
3271.000000	98.879949  
3270.000000	98.875915  
3269.000000	98.871212  
3268.000000	98.866461  
3267.000000	98.862201  
3266.000000	98.858183  
3265.000000	98.853671  
3264.000000	98.848475  
3263.000000	98.843410  
3262.000000	98.839450  
3261.000000	98.836540  
3260.000000	98.833499  
3259.000000	98.829258  
3258.000000	98.823961  
3257.000000	98.818628  
3256.000000	98.813818  
3255.000000	98.808912  
3254.000000	98.803004  
3253.000000	98.796229  
3252.000000	98.789898  
3251.000000	98.785177  
3250.000000	98.781940  
3249.000000	98.779080  
3248.000000	98.775748  
3247.000000	98.771963  
3246.000000	98.768098  
3245.000000	98.764215  
3244.000000	98.759969  
3243.000000	98.754822  
3242.000000	98.748157  
3241.000000	98.739727  
3240.000000	98.730370  
3239.000000	98.721921  
3238.000000	98.715809  
3237.000000	98.711838  
3236.000000	98.708520  
3235.000000	98.704491  
3234.000000	98.699412  
3233.000000	98.693596  
3232.000000	98.687457  
3231.000000	98.681511  
3230.000000	98.676399  
3229.000000	98.672469  
3228.000000	98.669435  
3227.000000	98.666640  
3226.000000	98.663511  
3225.000000	98.659668  
3224.000000	98.654907  
3223.000000	98.649457  
3222.000000	98.644129  
3221.000000	98.639724  
3220.000000	98.636070  
3219.000000	98.631897  
3218.000000	98.626039  
3217.000000	98.618622  
3216.000000	98.611021  
3215.000000	98.604676  
3214.000000	98.599925  
3213.000000	98.596038  
3212.000000	98.591972  
3211.000000	98.587086  
3210.000000	98.581257  
3209.000000	98.574744  
3208.000000	98.568130  
3207.000000	98.562065  
3206.000000	98.556696  
3205.000000	98.551399  
3204.000000	98.545374  
3203.000000	98.538601  
3202.000000	98.532035  
3201.000000	98.526700  
3200.000000	98.522829  
3199.000000	98.519861  
3198.000000	98.516942  
3197.000000	98.513380  
3196.000000	98.508851  
3195.000000	98.503554  
3194.000000	98.498192  
3193.000000	98.493430  
3192.000000	98.489209  
3191.000000	98.484738  
3190.000000	98.479314  
3189.000000	98.472999  
3188.000000	98.466499  
3187.000000	98.460522  
3186.000000	98.455284  
3185.000000	98.450522  
3184.000000	98.445735  
3183.000000	98.440499  
3182.000000	98.434774  
3181.000000	98.428975  
3180.000000	98.423642  
3179.000000	98.418954  
3178.000000	98.414659  
3177.000000	98.410464  
3176.000000	98.406360  
3175.000000	98.402348  
3174.000000	98.398090  
3173.000000	98.393173  
3172.000000	98.387627  
3171.000000	98.381928  
3170.000000	98.376393  
3169.000000	98.370913  
3168.000000	98.365431  
3167.000000	98.360276  
3166.000000	98.355750  
3165.000000	98.351635  
3164.000000	98.347322  
3163.000000	98.342461  
3162.000000	98.337257  
3161.000000	98.332183  
3160.000000	98.327505  
3159.000000	98.323132  
3158.000000	98.318778  
3157.000000	98.314161  
3156.000000	98.309178  
3155.000000	98.304032  
3154.000000	98.299167  
3153.000000	98.294865  
3152.000000	98.290966  
3151.000000	98.287044  
3150.000000	98.282896  
3149.000000	98.278716  
3148.000000	98.274732  
3147.000000	98.270886  
3146.000000	98.266971  
3145.000000	98.262945  
3144.000000	98.258942  
3143.000000	98.254991  
3142.000000	98.250919  
3141.000000	98.246649  
3140.000000	98.242476  
3139.000000	98.238828  
3138.000000	98.235800  
3137.000000	98.233062  
3136.000000	98.230147  
3135.000000	98.226841  
3134.000000	98.223228  
3133.000000	98.219554  
3132.000000	98.216069  
3131.000000	98.212890  
3130.000000	98.209968  
3129.000000	98.207171  
3128.000000	98.204423  
3127.000000	98.201728  
3126.000000	98.199019  
3125.000000	98.196137  
3124.000000	98.193011  
3123.000000	98.189808  
3122.000000	98.186781  
3121.000000	98.183991  
3120.000000	98.181282  
3119.000000	98.178523  
3118.000000	98.175807  
3117.000000	98.173358  
3116.000000	98.171308  
3115.000000	98.169573  
3114.000000	98.167851  
3113.000000	98.165761  
3112.000000	98.163101  
3111.000000	98.160006  
3110.000000	98.156971  
3109.000000	98.154533  
3108.000000	98.152918  
3107.000000	98.151918  
3106.000000	98.150948  
3105.000000	98.149470  
3104.000000	98.147327  
3103.000000	98.144737  
3102.000000	98.142028  
3101.000000	98.139415  
3100.000000	98.137088  
3099.000000	98.135276  
3098.000000	98.134027  
3097.000000	98.132974  
3096.000000	98.131513  
3095.000000	98.129186  
3094.000000	98.125700  
3093.000000	98.120817  
3092.000000	98.114894  
3091.000000	98.109533  
3090.000000	98.106674  
3089.000000	98.106576  
3088.000000	98.107212  
3087.000000	98.106422  
3086.000000	98.104145  
3085.000000	98.101904  
3084.000000	98.100806  
3083.000000	98.100544  
3082.000000	98.099718  
3081.000000	98.096815  
3080.000000	98.091711  
3079.000000	98.086651  
3078.000000	98.084811  
3077.000000	98.087335  
3076.000000	98.092374  
3075.000000	98.097114  
3074.000000	98.099833  
3073.000000	98.100110  
3072.000000	98.098587  
3071.000000	98.097051  
3070.000000	98.097206  
3069.000000	98.098458  
3068.000000	98.098016  
3067.000000	98.094108  
3066.000000	98.088472  
3065.000000	98.085158  
3064.000000	98.087266  
3063.000000	98.094432  
3062.000000	98.101962  
3061.000000	98.102849  
3060.000000	98.093469  
3059.000000	98.078324  
3058.000000	98.067016  
3057.000000	98.064892  
3056.000000	98.068349  
3055.000000	98.070664  
3054.000000	98.070301  
3053.000000	98.070986  
3052.000000	98.075215  
3051.000000	98.081222  
3050.000000	98.086511  
3049.000000	98.091552  
3048.000000	98.098623  
3047.000000	98.108265  
3046.000000	98.118143  
3045.000000	98.125043  
3044.000000	98.127563  
3043.000000	98.127433  
3042.000000	98.128641  
3041.000000	98.134895  
3040.000000	98.147259  
3039.000000	98.163720  
3038.000000	98.180919  
3037.000000	98.196767  
3036.000000	98.211992  
3035.000000	98.228993  
3034.000000	98.248767  
3033.000000	98.269791  
3032.000000	98.290522  
3031.000000	98.311744  
3030.000000	98.335079  
3029.000000	98.359895  
3028.000000	98.383687  
3027.000000	98.405759  
3026.000000	98.428240  
3025.000000	98.452336  
3024.000000	98.475625  
3023.000000	98.495093  
3022.000000	98.511674  
3021.000000	98.529877  
3020.000000	98.553759  
3019.000000	98.584883  
3018.000000	98.622944  
3017.000000	98.665507  
3016.000000	98.707281  
3015.000000	98.742984  
3014.000000	98.772760  
3013.000000	98.803236  
3012.000000	98.841489  
3011.000000	98.888469  
3010.000000	98.939043  
3009.000000	98.987601  
3008.000000	99.032370  
3007.000000	99.074949  
3006.000000	99.117523  
3005.000000	99.161345  
3004.000000	99.206746  
3003.000000	99.253091  
3002.000000	99.298644  
3001.000000	99.341630  
3000.000000	99.382267  
2999.000000	99.423175  
2998.000000	99.466355  
2997.000000	99.509457  
2996.000000	99.546933  
2995.000000	99.577448  
2994.000000	99.610660  
2993.000000	99.663751  
2992.000000	99.747282  
2991.000000	99.852653  
2990.000000	99.954878  
2989.000000	100.030508 
2988.000000	100.073830 
2987.000000	100.096322 
2986.000000	100.113043 
2985.000000	100.131729 
2984.000000	100.153835 
2983.000000	100.180463 
2982.000000	100.213206 
2981.000000	100.250890 
2980.000000	100.289129 
2979.000000	100.323396 
2978.000000	100.350653 
2977.000000	100.368942 
2976.000000	100.378737 
2975.000000	100.384893 
2974.000000	100.393022 
2973.000000	100.400988 
2972.000000	100.396089 
2971.000000	100.364111 
2970.000000	100.301263 
2969.000000	100.216368 
2968.000000	100.122890 
2967.000000	100.030859 
2966.000000	99.945541  
2965.000000	99.869530  
2964.000000	99.803223  
2963.000000	99.744686  
2962.000000	99.691449  
2961.000000	99.642592  
2960.000000	99.598261  
2959.000000	99.557862  
2958.000000	99.520267  
2957.000000	99.485884  
2956.000000	99.457079  
2955.000000	99.435517  
2954.000000	99.419340  
2953.000000	99.403664  
2952.000000	99.384009  
2951.000000	99.359191  
2950.000000	99.331125  
2949.000000	99.302522  
2948.000000	99.275333  
2947.000000	99.251110  
2946.000000	99.231694  
2945.000000	99.218529  
2944.000000	99.211190  
2943.000000	99.206825  
2942.000000	99.201310  
2941.000000	99.191672  
2940.000000	99.178126  
2939.000000	99.164104  
2938.000000	99.153617  
2937.000000	99.147635  
2936.000000	99.142957  
2935.000000	99.135480  
2934.000000	99.124828  
2933.000000	99.114792  
2932.000000	99.108609  
2931.000000	99.104835  
2930.000000	99.099153  
2929.000000	99.089752  
2928.000000	99.079222  
2927.000000	99.071188  
2926.000000	99.067475  
2925.000000	99.069464  
2924.000000	99.079565  
2923.000000	99.098642  
2922.000000	99.122872  
2921.000000	99.145963  
2920.000000	99.164854  
2919.000000	99.181431  
2918.000000	99.198751  
2917.000000	99.218031  
2916.000000	99.239880  
2915.000000	99.265773  
2914.000000	99.296227  
2913.000000	99.328713  
2912.000000	99.359168  
2911.000000	99.384890  
2910.000000	99.404871  
2909.000000	99.418643  
2908.000000	99.427228  
2907.000000	99.435445  
2906.000000	99.451335  
2905.000000	99.481480  
2904.000000	99.526089  
2903.000000	99.576682  
2902.000000	99.618838  
2901.000000	99.638043  
2900.000000	99.627381  
2899.000000	99.591935  
2898.000000	99.545846  
2897.000000	99.504625  
2896.000000	99.478234  
2895.000000	99.468621  
2894.000000	99.470317  
2893.000000	99.473159  
2892.000000	99.467950  
2891.000000	99.452881  
2890.000000	99.434562  
2889.000000	99.421431  
2888.000000	99.416066  
2887.000000	99.414359  
2886.000000	99.411100  
2885.000000	99.404402  
2884.000000	99.394660  
2883.000000	99.381556  
2882.000000	99.363831  
2881.000000	99.341237  
2880.000000	99.315101  
2879.000000	99.287035  
2878.000000	99.258349  
2877.000000	99.230512  
2876.000000	99.204315  
2875.000000	99.177861  
2874.000000	99.147210  
2873.000000	99.111016  
2872.000000	99.073840  
2871.000000	99.042882  
2870.000000	99.020904  
2869.000000	99.003315  
2868.000000	98.982331  
2867.000000	98.953002  
2866.000000	98.915474  
2865.000000	98.873134  
2864.000000	98.829501  
2863.000000	98.786036  
2862.000000	98.742079  
2861.000000	98.696967  
2860.000000	98.651977  
2859.000000	98.609355  
2858.000000	98.569637  
2857.000000	98.531157  
2856.000000	98.492301  
2855.000000	98.453469  
2854.000000	98.417344  
2853.000000	98.388808  
2852.000000	98.373595  
2851.000000	98.373431  
2850.000000	98.381497  
2849.000000	98.385881  
2848.000000	98.380588  
2847.000000	98.371055  
2846.000000	98.366269  
2845.000000	98.368026  
2844.000000	98.370924  
2843.000000	98.370804  
2842.000000	98.368760  
2841.000000	98.366836  
2840.000000	98.364043  
2839.000000	98.358386  
2838.000000	98.350260  
2837.000000	98.341822  
2836.000000	98.334260  
2835.000000	98.327134  
2834.000000	98.319723  
2833.000000	98.312038  
2832.000000	98.304813  
2831.000000	98.298890  
2830.000000	98.294156  
2829.000000	98.289027  
2828.000000	98.281720  
2827.000000	98.272353  
2826.000000	98.263285  
2825.000000	98.257183  
2824.000000	98.254859  
2823.000000	98.254554  
2822.000000	98.252913  
2821.000000	98.247281  
2820.000000	98.237877  
2819.000000	98.227464  
2818.000000	98.218526  
2817.000000	98.211599  
2816.000000	98.206792  
2815.000000	98.205165  
2814.000000	98.206921  
2813.000000	98.209487  
2812.000000	98.209715  
2811.000000	98.207602  
2810.000000	98.205790  
2809.000000	98.205534  
2808.000000	98.205230  
2807.000000	98.203112  
2806.000000	98.199403  
2805.000000	98.195266  
2804.000000	98.191213  
2803.000000	98.187293  
2802.000000	98.183774  
2801.000000	98.181092  
2800.000000	98.179691  
2799.000000	98.180022  
2798.000000	98.182054  
2797.000000	98.184593  
2796.000000	98.185762  
2795.000000	98.184461  
2794.000000	98.181006  
2793.000000	98.176410  
2792.000000	98.171782  
2791.000000	98.168371  
2790.000000	98.167304  
2789.000000	98.168690  
2788.000000	98.171227  
2787.000000	98.173171  
2786.000000	98.173784  
2785.000000	98.173560  
2784.000000	98.173193  
2783.000000	98.172640  
2782.000000	98.171343  
2781.000000	98.169228  
2780.000000	98.167129  
2779.000000	98.165999  
2778.000000	98.165881  
2777.000000	98.165999  
2776.000000	98.165721  
2775.000000	98.165079  
2774.000000	98.164371  
2773.000000	98.163724  
2772.000000	98.163127  
2771.000000	98.162552  
2770.000000	98.161922  
2769.000000	98.161171  
2768.000000	98.160387  
2767.000000	98.159761  
2766.000000	98.159340  
2765.000000	98.159004  
2764.000000	98.158636  
2763.000000	98.158229  
2762.000000	98.157824  
2761.000000	98.157428  
2760.000000	98.157034  
2759.000000	98.156636  
2758.000000	98.156232  
2757.000000	98.155823  
2756.000000	98.155414  
2755.000000	98.155009  
2754.000000	98.154609  
2753.000000	98.154216  
2752.000000	98.153832  
2751.000000	98.153465  
2750.000000	98.153120  
2749.000000	98.152796  
2748.000000	98.152479  
2747.000000	98.152157  
2746.000000	98.151824  
2745.000000	98.151488  
2744.000000	98.151152  
2743.000000	98.150801  
2742.000000	98.150413  
2741.000000	98.149981  
2740.000000	98.149520  
2739.000000	98.149036  
2738.000000	98.148518  
2737.000000	98.147989  
2736.000000	98.147556  
2735.000000	98.147343  
2734.000000	98.147337  
2733.000000	98.147305  
2732.000000	98.146968  
2731.000000	98.146275  
2730.000000	98.145506  
2729.000000	98.145010  
2728.000000	98.144849  
2727.000000	98.144828  
2726.000000	98.144840  
2725.000000	98.144974  
2724.000000	98.145221  
2723.000000	98.145336  
2722.000000	98.145038  
2721.000000	98.144142  
2720.000000	98.142518  
2719.000000	98.140282  
2718.000000	98.138056  
2717.000000	98.136748  
2716.000000	98.136902  
2715.000000	98.138300  
2714.000000	98.140174  
2713.000000	98.141834  
2712.000000	98.143102  
2711.000000	98.144096  
2710.000000	98.144646  
2709.000000	98.144194  
2708.000000	98.142500  
2707.000000	98.140320  
2706.000000	98.138885  
2705.000000	98.138417  
2704.000000	98.137794  
2703.000000	98.135983  
2702.000000	98.133305  
2701.000000	98.130991  
2700.000000	98.129811  
2699.000000	98.129602  
2698.000000	98.129891  
2697.000000	98.130467  
2696.000000	98.131317  
2695.000000	98.132285  
2694.000000	98.132885  
2693.000000	98.132358  
2692.000000	98.130118  
2691.000000	98.126440  
2690.000000	98.122712  
2689.000000	98.120530  
2688.000000	98.120391  
2687.000000	98.121529  
2686.000000	98.122978  
2685.000000	98.124468  
2684.000000	98.126079  
2683.000000	98.127393  
2682.000000	98.127688  
2681.000000	98.127080  
2680.000000	98.126814  
2679.000000	98.127874  
2678.000000	98.129649  
2677.000000	98.130622  
2676.000000	98.130264  
2675.000000	98.129494  
2674.000000	98.129302  
2673.000000	98.129847  
2672.000000	98.131155  
2671.000000	98.133637  
2670.000000	98.137125  
2669.000000	98.140098  
2668.000000	98.140954  
2667.000000	98.139703  
2666.000000	98.137860  
2665.000000	98.136928  
2664.000000	98.137474  
2663.000000	98.139484  
2662.000000	98.142595  
2661.000000	98.145920  
2660.000000	98.148590  
2659.000000	98.150696  
2658.000000	98.152965  
2657.000000	98.155339  
2656.000000	98.156683  
2655.000000	98.156260  
2654.000000	98.154794  
2653.000000	98.153734  
2652.000000	98.153841  
2651.000000	98.154871  
2650.000000	98.156176  
2649.000000	98.157247  
2648.000000	98.157989  
2647.000000	98.158744  
2646.000000	98.159880  
2645.000000	98.161260  
2644.000000	98.162368  
2643.000000	98.162945  
2642.000000	98.163175  
2641.000000	98.163278  
2640.000000	98.163341  
2639.000000	98.163594  
2638.000000	98.164288  
2637.000000	98.165044  
2636.000000	98.164922  
2635.000000	98.163550  
2634.000000	98.161823  
2633.000000	98.161003  
2632.000000	98.161498  
2631.000000	98.163023  
2630.000000	98.165355  
2629.000000	98.168222  
2628.000000	98.170764  
2627.000000	98.172038  
2626.000000	98.172174  
2625.000000	98.172404  
2624.000000	98.173646  
2623.000000	98.175425  
2622.000000	98.176497  
2621.000000	98.176326  
2620.000000	98.175786  
2619.000000	98.176407  
2618.000000	98.178858  
2617.000000	98.182125  
2616.000000	98.184346  
2615.000000	98.184703  
2614.000000	98.184107  
2613.000000	98.183965  
2612.000000	98.184450  
2611.000000	98.184499  
2610.000000	98.183442  
2609.000000	98.182070  
2608.000000	98.181789  
2607.000000	98.182938  
2606.000000	98.184273  
2605.000000	98.184222  
2604.000000	98.182546  
2603.000000	98.180517  
2602.000000	98.179440  
2601.000000	98.179430  
2600.000000	98.179938  
2599.000000	98.180995  
2598.000000	98.183227  
2597.000000	98.186762  
2596.000000	98.190872  
2595.000000	98.194788  
2594.000000	98.198228  
2593.000000	98.200957  
2592.000000	98.202504  
2591.000000	98.202718  
2590.000000	98.202166  
2589.000000	98.201729  
2588.000000	98.201991  
2587.000000	98.203129  
2586.000000	98.205003  
2585.000000	98.207054  
2584.000000	98.208479  
2583.000000	98.208849  
2582.000000	98.208379  
2581.000000	98.207524  
2580.000000	98.206647  
2579.000000	98.206240  
2578.000000	98.207030  
2577.000000	98.209361  
2576.000000	98.212619  
2575.000000	98.215581  
2574.000000	98.217508  
2573.000000	98.218638  
2572.000000	98.219705  
2571.000000	98.221253  
2570.000000	98.223297  
2569.000000	98.225400  
2568.000000	98.227020  
2567.000000	98.227950  
2566.000000	98.228502  
2565.000000	98.229306  
2564.000000	98.230787  
2563.000000	98.232818  
2562.000000	98.234838  
2561.000000	98.236337  
2560.000000	98.237297  
2559.000000	98.238072  
2558.000000	98.238981  
2557.000000	98.240057  
2556.000000	98.241181  
2555.000000	98.242282  
2554.000000	98.243335  
2553.000000	98.244282  
2552.000000	98.245100  
2551.000000	98.245942  
2550.000000	98.247052  
2549.000000	98.248497  
2548.000000	98.250059  
2547.000000	98.251432  
2546.000000	98.252528  
2545.000000	98.253511  
2544.000000	98.254567  
2543.000000	98.255667  
2542.000000	98.256610  
2541.000000	98.257267  
2540.000000	98.257743  
2539.000000	98.258312  
2538.000000	98.259162  
2537.000000	98.260257  
2536.000000	98.261420  
2535.000000	98.262482  
2534.000000	98.263310  
2533.000000	98.263807  
2532.000000	98.264079  
2531.000000	98.264534  
2530.000000	98.265535  
2529.000000	98.267003  
2528.000000	98.268507  
2527.000000	98.269772  
2526.000000	98.270864  
2525.000000	98.271859  
2524.000000	98.272730  
2523.000000	98.273632  
2522.000000	98.274929  
2521.000000	98.276668  
2520.000000	98.278283  
2519.000000	98.279140  
2518.000000	98.279144  
2517.000000	98.278712  
2516.000000	98.278380  
2515.000000	98.278505  
2514.000000	98.279172  
2513.000000	98.280201  
2512.000000	98.281336  
2511.000000	98.282538  
2510.000000	98.283900  
2509.000000	98.285275  
2508.000000	98.286339  
2507.000000	98.287029  
2506.000000	98.287568  
2505.000000	98.288017  
2504.000000	98.288204  
2503.000000	98.288240  
2502.000000	98.288607  
2501.000000	98.289527  
2500.000000	98.290616  
2499.000000	98.291446  
2498.000000	98.292152  
2497.000000	98.293119  
2496.000000	98.294331  
2495.000000	98.295407  
2494.000000	98.296158  
2493.000000	98.296745  
2492.000000	98.297368  
2491.000000	98.298091  
2490.000000	98.298967  
2489.000000	98.300041  
2488.000000	98.301267  
2487.000000	98.302535  
2486.000000	98.303799  
2485.000000	98.305065  
2484.000000	98.306232  
2483.000000	98.307124  
2482.000000	98.307705  
2481.000000	98.308186  
2480.000000	98.308887  
2479.000000	98.309961  
2478.000000	98.311263  
2477.000000	98.312480  
2476.000000	98.313433  
2475.000000	98.314240  
2474.000000	98.315136  
2473.000000	98.316166  
2472.000000	98.317205  
2471.000000	98.318329  
2470.000000	98.319863  
2469.000000	98.321928  
2468.000000	98.324062  
2467.000000	98.325585  
2466.000000	98.326296  
2465.000000	98.326574  
2464.000000	98.326970  
2463.000000	98.327721  
2462.000000	98.328740  
2461.000000	98.329792  
2460.000000	98.330665  
2459.000000	98.331351  
2458.000000	98.332079  
2457.000000	98.333048  
2456.000000	98.334168  
2455.000000	98.335201  
2454.000000	98.336127  
2453.000000	98.337143  
2452.000000	98.338278  
2451.000000	98.339246  
2450.000000	98.339891  
2449.000000	98.340647  
2448.000000	98.342243  
2447.000000	98.344944  
2446.000000	98.348131  
2445.000000	98.350681  
2444.000000	98.352095  
2443.000000	98.352918  
2442.000000	98.354070  
2441.000000	98.355624  
2440.000000	98.356817  
2439.000000	98.357247  
2438.000000	98.357377  
2437.000000	98.357780  
2436.000000	98.358419  
2435.000000	98.359066  
2434.000000	98.359957  
2433.000000	98.361480  
2432.000000	98.363520  
2431.000000	98.365633  
2430.000000	98.367668  
2429.000000	98.369720  
2428.000000	98.371606  
2427.000000	98.372900  
2426.000000	98.373545  
2425.000000	98.374028  
2424.000000	98.374894  
2423.000000	98.376270  
2422.000000	98.377828  
2421.000000	98.379100  
2420.000000	98.379894  
2419.000000	98.380607  
2418.000000	98.381994  
2417.000000	98.384434  
2416.000000	98.387570  
2415.000000	98.390778  
2414.000000	98.393660  
2413.000000	98.395662  
2412.000000	98.396254  
2411.000000	98.396199  
2410.000000	98.397431  
2409.000000	98.400874  
2408.000000	98.405050  
2407.000000	98.407774  
2406.000000	98.408719  
2405.000000	98.409212  
2404.000000	98.410096  
2403.000000	98.410946  
2402.000000	98.411402  
2401.000000	98.412016  
2400.000000	98.413348  
2399.000000	98.415125  
2398.000000	98.416665  
2397.000000	98.417692  
2396.000000	98.418454  
2395.000000	98.419287  
2394.000000	98.420186  
2393.000000	98.420902  
2392.000000	98.421479  
2391.000000	98.422472  
2390.000000	98.424423  
2389.000000	98.427172  
2388.000000	98.430028  
2387.000000	98.432609  
2386.000000	98.434916  
2385.000000	98.436840  
2384.000000	98.438321  
2383.000000	98.439851  
2382.000000	98.441907  
2381.000000	98.443843  
2380.000000	98.444496  
2379.000000	98.444251  
2378.000000	98.445132  
2377.000000	98.448071  
2376.000000	98.451666  
2375.000000	98.454764  
2374.000000	98.458783  
2373.000000	98.465627  
2372.000000	98.474371  
2371.000000	98.481697  
2370.000000	98.485300  
2369.000000	98.485338  
2368.000000	98.483432  
2367.000000	98.481774  
2366.000000	98.482435  
2365.000000	98.486213  
2364.000000	98.492303  
2363.000000	98.499710  
2362.000000	98.508103  
2361.000000	98.516398  
2360.000000	98.523269  
2359.000000	98.528125  
2358.000000	98.531538  
2357.000000	98.534611  
2356.000000	98.538347  
2355.000000	98.542930  
2354.000000	98.545473  
2353.000000	98.544229  
2352.000000	98.541496  
2351.000000	98.541043  
2350.000000	98.545062  
2349.000000	98.552734  
2348.000000	98.561683  
2347.000000	98.567870  
2346.000000	98.569326  
2345.000000	98.568588  
2344.000000	98.569017  
2343.000000	98.571961  
2342.000000	98.575545  
2341.000000	98.577973  
2340.000000	98.578251  
2339.000000	98.576989  
2338.000000	98.575777  
2337.000000	98.575958  
2336.000000	98.578027  
2335.000000	98.581224  
2334.000000	98.583343  
2333.000000	98.583260  
2332.000000	98.581967  
2331.000000	98.579951  
2330.000000	98.577028  
2329.000000	98.572967  
2328.000000	98.570586  
2327.000000	98.571234  
2326.000000	98.573883  
2325.000000	98.577404  
2324.000000	98.581087  
2323.000000	98.585087  
2322.000000	98.587795  
2321.000000	98.589309  
2320.000000	98.590683  
2319.000000	98.592682  
2318.000000	98.594330  
2317.000000	98.593781  
2316.000000	98.590501  
2315.000000	98.585000  
2314.000000	98.579363  
2313.000000	98.575522  
2312.000000	98.574229  
2311.000000	98.573471  
2310.000000	98.570755  
2309.000000	98.565547  
2308.000000	98.559012  
2307.000000	98.552087  
2306.000000	98.545361  
2305.000000	98.541062  
2304.000000	98.541690  
2303.000000	98.547014  
2302.000000	98.553387  
2301.000000	98.557175  
2300.000000	98.557335  
2299.000000	98.554761  
2298.000000	98.551225  
2297.000000	98.548385  
2296.000000	98.547521  
2295.000000	98.548324  
2294.000000	98.549256  
2293.000000	98.548996  
2292.000000	98.547677  
2291.000000	98.546229  
2290.000000	98.545100  
2289.000000	98.544360  
2288.000000	98.544053  
2287.000000	98.544258  
2286.000000	98.544628  
2285.000000	98.544741  
2284.000000	98.544344  
2283.000000	98.543527  
2282.000000	98.542648  
2281.000000	98.542430  
2280.000000	98.543449  
2279.000000	98.545396  
2278.000000	98.547049  
2277.000000	98.547521  
2276.000000	98.547248  
2275.000000	98.547304  
2274.000000	98.548055  
2273.000000	98.548821  
2272.000000	98.548898  
2271.000000	98.548424  
2270.000000	98.548182  
2269.000000	98.548659  
2268.000000	98.549586  
2267.000000	98.550443  
2266.000000	98.551067  
2265.000000	98.551652  
2264.000000	98.552361  
2263.000000	98.553159  
2262.000000	98.553973  
2261.000000	98.554790  
2260.000000	98.555617  
2259.000000	98.556456  
2258.000000	98.557310  
2257.000000	98.558214  
2256.000000	98.559182  
2255.000000	98.560179  
2254.000000	98.561166  
2253.000000	98.562136  
2252.000000	98.563104  
2251.000000	98.564078  
2250.000000	98.565059  
2249.000000	98.566050  
2248.000000	98.567058  
2247.000000	98.568086  
2246.000000	98.569137  
2245.000000	98.570207  
2244.000000	98.571293  
2243.000000	98.572395  
2242.000000	98.573509  
2241.000000	98.574625  
2240.000000	98.575729  
2239.000000	98.576816  
2238.000000	98.577893  
2237.000000	98.578970  
2236.000000	98.580058  
2235.000000	98.581159  
2234.000000	98.582271  
2233.000000	98.583391  
2232.000000	98.584518  
2231.000000	98.585653  
2230.000000	98.586801  
2229.000000	98.587964  
2228.000000	98.589143  
2227.000000	98.590338  
2226.000000	98.591554  
2225.000000	98.592797  
2224.000000	98.594068  
2223.000000	98.595361  
2222.000000	98.596665  
2221.000000	98.597972  
2220.000000	98.599280  
2219.000000	98.600586  
2218.000000	98.601887  
2217.000000	98.603182  
2216.000000	98.604466  
2215.000000	98.605735  
2214.000000	98.606993  
2213.000000	98.608254  
2212.000000	98.609520  
2211.000000	98.610784  
2210.000000	98.612042  
2209.000000	98.613315  
2208.000000	98.614645  
2207.000000	98.616079  
2206.000000	98.617603  
2205.000000	98.619106  
2204.000000	98.620453  
2203.000000	98.621607  
2202.000000	98.622686  
2201.000000	98.623853  
2200.000000	98.625193  
2199.000000	98.626708  
2198.000000	98.628363  
2197.000000	98.630072  
2196.000000	98.631704  
2195.000000	98.633203  
2194.000000	98.634670  
2193.000000	98.636254  
2192.000000	98.637958  
2191.000000	98.639599  
2190.000000	98.640957  
2189.000000	98.642031  
2188.000000	98.643168  
2187.000000	98.644853  
2186.000000	98.647292  
2185.000000	98.650151  
2184.000000	98.652662  
2183.000000	98.654304  
2182.000000	98.655149  
2181.000000	98.655709  
2180.000000	98.656441  
2179.000000	98.657457  
2178.000000	98.658644  
2177.000000	98.659836  
2176.000000	98.660924  
2175.000000	98.661964  
2174.000000	98.663126  
2173.000000	98.664467  
2172.000000	98.665844  
2171.000000	98.667184  
2170.000000	98.668734  
2169.000000	98.670806  
2168.000000	98.673284  
2167.000000	98.675543  
2166.000000	98.677019  
2165.000000	98.677668  
2164.000000	98.677863  
2163.000000	98.678026  
2162.000000	98.678434  
2161.000000	98.679242  
2160.000000	98.680502  
2159.000000	98.682151  
2158.000000	98.684024  
2157.000000	98.685834  
2156.000000	98.687172  
2155.000000	98.687715  
2154.000000	98.687552  
2153.000000	98.687258  
2152.000000	98.687438  
2151.000000	98.688214  
2150.000000	98.689323  
2149.000000	98.690617  
2148.000000	98.692256  
2147.000000	98.694298  
2146.000000	98.696320  
2145.000000	98.697695  
2144.000000	98.698229  
2143.000000	98.698406  
2142.000000	98.698929  
2141.000000	98.700071  
2140.000000	98.701564  
2139.000000	98.702952  
2138.000000	98.704019  
2137.000000	98.704921  
2136.000000	98.706045  
2135.000000	98.707704  
2134.000000	98.709832  
2133.000000	98.711915  
2132.000000	98.713400  
2131.000000	98.714193  
2130.000000	98.714691  
2129.000000	98.715340  
2128.000000	98.716266  
2127.000000	98.717353  
2126.000000	98.718424  
2125.000000	98.719228  
2124.000000	98.719475  
2123.000000	98.719149  
2122.000000	98.718716  
2121.000000	98.718819  
2120.000000	98.719714  
2119.000000	98.721124  
2118.000000	98.722502  
2117.000000	98.723472  
2116.000000	98.724029  
2115.000000	98.724391  
2114.000000	98.724771  
2113.000000	98.725254  
2112.000000	98.725809  
2111.000000	98.726357  
2110.000000	98.726823  
2109.000000	98.727178  
2108.000000	98.727464  
2107.000000	98.727783  
2106.000000	98.728215  
2105.000000	98.728731  
2104.000000	98.729196  
2103.000000	98.729490  
2102.000000	98.729649  
2101.000000	98.729878  
2100.000000	98.730354  
2099.000000	98.731032  
2098.000000	98.731655  
2097.000000	98.731997  
2096.000000	98.732094  
2095.000000	98.732209  
2094.000000	98.732546  
2093.000000	98.733042  
2092.000000	98.733464  
2091.000000	98.733697  
2090.000000	98.733811  
2089.000000	98.733908  
2088.000000	98.734032  
2087.000000	98.734245  
2086.000000	98.734633  
2085.000000	98.735143  
2084.000000	98.735558  
2083.000000	98.735831  
2082.000000	98.736253  
2081.000000	98.737070  
2080.000000	98.738094  
2079.000000	98.738936  
2078.000000	98.739518  
2077.000000	98.740035  
2076.000000	98.740520  
2075.000000	98.740816  
2074.000000	98.740940  
2073.000000	98.741062  
2072.000000	98.741130  
2071.000000	98.740901  
2070.000000	98.740399  
2069.000000	98.740054  
2068.000000	98.740255  
2067.000000	98.740977  
2066.000000	98.741931  
2065.000000	98.742870  
2064.000000	98.743649  
2063.000000	98.744185  
2062.000000	98.744538  
2061.000000	98.744857  
2060.000000	98.745113  
2059.000000	98.745016  
2058.000000	98.744350  
2057.000000	98.743335  
2056.000000	98.742530  
2055.000000	98.742348  
2054.000000	98.742800  
2053.000000	98.743607  
2052.000000	98.744471  
2051.000000	98.745199  
2050.000000	98.745696  
2049.000000	98.745982  
2048.000000	98.746169  
2047.000000	98.746297  
2046.000000	98.746212  
2045.000000	98.745728  
2044.000000	98.744885  
2043.000000	98.744036  
2042.000000	98.743614  
2041.000000	98.743744  
2040.000000	98.744119  
2039.000000	98.744267  
2038.000000	98.744043  
2037.000000	98.743735  
2036.000000	98.743720  
2035.000000	98.744079  
2034.000000	98.744567  
2033.000000	98.744885  
2032.000000	98.744987  
2031.000000	98.745051  
2030.000000	98.745178  
2029.000000	98.745214  
2028.000000	98.744946  
2027.000000	98.744410  
2026.000000	98.743930  
2025.000000	98.743799  
2024.000000	98.743998  
2023.000000	98.744254  
2022.000000	98.744363  
2021.000000	98.744374  
2020.000000	98.744415  
2019.000000	98.744438  
2018.000000	98.744267  
2017.000000	98.743901  
2016.000000	98.743647  
2015.000000	98.743861  
2014.000000	98.744608  
2013.000000	98.745649  
2012.000000	98.746627  
2011.000000	98.747314  
2010.000000	98.747668  
2009.000000	98.747754  
2008.000000	98.747653  
2007.000000	98.747435  
2006.000000	98.747198  
2005.000000	98.747076  
2004.000000	98.747198  
2003.000000	98.747640  
2002.000000	98.748407  
2001.000000	98.749400  
2000.000000	98.750410  
1999.000000	98.751149  
1998.000000	98.751383  
1997.000000	98.751123  
1996.000000	98.750808  
1995.000000	98.751037  
1994.000000	98.752001  
1993.000000	98.753321  
1992.000000	98.754485  
1991.000000	98.755476  
1990.000000	98.756615  
1989.000000	98.757960  
1988.000000	98.759197  
1987.000000	98.760089  
1986.000000	98.760794  
1985.000000	98.761672  
1984.000000	98.762894  
1983.000000	98.764374  
1982.000000	98.765929  
1981.000000	98.767353  
1980.000000	98.768431  
1979.000000	98.769048  
1978.000000	98.769347  
1977.000000	98.769739  
1976.000000	98.770663  
1975.000000	98.772256  
1974.000000	98.774159  
1973.000000	98.775769  
1972.000000	98.776793  
1971.000000	98.777506  
1970.000000	98.778412  
1969.000000	98.779638  
1968.000000	98.780788  
1967.000000	98.781493  
1966.000000	98.782045  
1965.000000	98.783250  
1964.000000	98.785581  
1963.000000	98.788652  
1962.000000	98.791620  
1961.000000	98.794152  
1960.000000	98.796626  
1959.000000	98.799213  
1958.000000	98.801298  
1957.000000	98.802343  
1956.000000	98.802733  
1955.000000	98.803015  
1954.000000	98.802852  
1953.000000	98.801733  
1952.000000	98.800342  
1951.000000	98.800180  
1950.000000	98.801837  
1949.000000	98.804473  
1948.000000	98.807001  
1947.000000	98.809237  
1946.000000	98.811584  
1945.000000	98.814084  
1944.000000	98.816159  
1943.000000	98.817078  
1942.000000	98.816592  
1941.000000	98.815350  
1940.000000	98.814782  
1939.000000	98.816263  
1938.000000	98.819970  
1937.000000	98.824397  
1936.000000	98.827305  
1935.000000	98.827341  
1934.000000	98.825143  
1933.000000	98.823176  
1932.000000	98.823523  
1931.000000	98.825612  
1930.000000	98.826869  
1929.000000	98.825918  
1928.000000	98.824170  
1927.000000	98.824028  
1926.000000	98.826126  
1925.000000	98.828833  
1924.000000	98.830462  
1923.000000	98.831008  
1922.000000	98.831619  
1921.000000	98.832763  
1920.000000	98.833518  
1919.000000	98.832321  
1918.000000	98.828033  
1917.000000	98.821239  
1916.000000	98.814378  
1915.000000	98.809838  
1914.000000	98.808014  
1913.000000	98.807279  
1912.000000	98.806048  
1911.000000	98.804675  
1910.000000	98.804413  
1909.000000	98.804951  
1908.000000	98.804252  
1907.000000	98.801103  
1906.000000	98.796341  
1905.000000	98.791308  
1904.000000	98.786842  
1903.000000	98.783766  
1902.000000	98.782656  
1901.000000	98.782490  
1900.000000	98.781217  
1899.000000	98.778442  
1898.000000	98.775931  
1897.000000	98.774715  
1896.000000	98.773261  
1895.000000	98.769791  
1894.000000	98.765434  
1893.000000	98.763006  
1892.000000	98.763515  
1891.000000	98.765370  
1890.000000	98.766218  
1889.000000	98.765041  
1888.000000	98.762670  
1887.000000	98.760761  
1886.000000	98.760445  
1885.000000	98.761592  
1884.000000	98.763418  
1883.000000	98.765751  
1882.000000	98.768754  
1881.000000	98.771427  
1880.000000	98.771928  
1879.000000	98.769714  
1878.000000	98.766371  
1877.000000	98.764000  
1876.000000	98.763572  
1875.000000	98.765002  
1874.000000	98.767483  
1873.000000	98.769218  
1872.000000	98.768332  
1871.000000	98.765061  
1870.000000	98.762421  
1869.000000	98.763208  
1868.000000	98.766400  
1867.000000	98.768812  
1866.000000	98.769611  
1865.000000	98.770230  
1864.000000	98.771714  
1863.000000	98.774135  
1862.000000	98.777294  
1861.000000	98.780704  
1860.000000	98.783374  
1859.000000	98.785011  
1858.000000	98.786967  
1857.000000	98.790551  
1856.000000	98.795109  
1855.000000	98.799140  
1854.000000	98.802025  
1853.000000	98.804084  
1852.000000	98.805681  
1851.000000	98.806781  
1850.000000	98.807550  
1849.000000	98.808388  
1848.000000	98.809449  
1847.000000	98.810620  
1846.000000	98.811990  
1845.000000	98.813841  
1844.000000	98.816194  
1843.000000	98.818988  
1842.000000	98.821816  
1841.000000	98.823969  
1840.000000	98.825450  
1839.000000	98.826945  
1838.000000	98.828735  
1837.000000	98.830217  
1836.000000	98.830981  
1835.000000	98.831626  
1834.000000	98.832759  
1833.000000	98.834638  
1832.000000	98.838003  
1831.000000	98.843278  
1830.000000	98.848424  
1829.000000	98.850122  
1828.000000	98.847942  
1827.000000	98.844368  
1826.000000	98.841514  
1825.000000	98.839664  
1824.000000	98.838687  
1823.000000	98.839478  
1822.000000	98.843001  
1821.000000	98.848544  
1820.000000	98.853697  
1819.000000	98.856600  
1818.000000	98.857809  
1817.000000	98.858984  
1816.000000	98.860613  
1815.000000	98.861838  
1814.000000	98.861983  
1813.000000	98.861362  
1812.000000	98.860930  
1811.000000	98.861944  
1810.000000	98.865858  
1809.000000	98.872862  
1808.000000	98.880222  
1807.000000	98.885202  
1806.000000	98.889249  
1805.000000	98.895364  
1804.000000	98.902600  
1803.000000	98.906120  
1802.000000	98.903530  
1801.000000	98.899099  
1800.000000	98.898194  
1799.000000	98.901601  
1798.000000	98.907646  
1797.000000	98.914301  
1796.000000	98.919085  
1795.000000	98.921514  
1794.000000	98.924799  
1793.000000	98.932256  
1792.000000	98.941617  
1791.000000	98.947376  
1790.000000	98.949173  
1789.000000	98.952222  
1788.000000	98.960901  
1787.000000	98.974820  
1786.000000	98.989901  
1785.000000	99.001772  
1784.000000	99.009529  
1783.000000	99.015844  
1782.000000	99.022887  
1781.000000	99.028774  
1780.000000	99.029130  
1779.000000	99.024923  
1778.000000	99.023374  
1777.000000	99.028790  
1776.000000	99.038267  
1775.000000	99.049176  
1774.000000	99.065711  
1773.000000	99.092159  
1772.000000	99.120670  
1771.000000	99.139041  
1770.000000	99.148358  
1769.000000	99.158592  
1768.000000	99.175637  
1767.000000	99.196700  
1766.000000	99.216820  
1765.000000	99.236717  
1764.000000	99.260397  
1763.000000	99.288325  
1762.000000	99.315386  
1761.000000	99.337139  
1760.000000	99.354730  
1759.000000	99.371996  
1758.000000	99.390858  
1757.000000	99.409395  
1756.000000	99.423774  
1755.000000	99.432911  
1754.000000	99.439484  
1753.000000	99.446943  
1752.000000	99.456918  
1751.000000	99.470262  
1750.000000	99.487492  
1749.000000	99.506976  
1748.000000	99.526702  
1747.000000	99.545808  
1746.000000	99.564982  
1745.000000	99.585483  
1744.000000	99.606547  
1743.000000	99.625193  
1742.000000	99.639693  
1741.000000	99.652671  
1740.000000	99.666706  
1739.000000	99.677982  
1738.000000	99.679724  
1737.000000	99.669420  
1736.000000	99.647927  
1735.000000	99.615246  
1734.000000	99.575675  
1733.000000	99.545881  
1732.000000	99.536715  
1731.000000	99.542242  
1730.000000	99.552588  
1729.000000	99.558511  
1728.000000	99.555306  
1727.000000	99.543610  
1726.000000	99.526989  
1725.000000	99.508688  
1724.000000	99.491151  
1723.000000	99.476376  
1722.000000	99.463367  
1721.000000	99.448186  
1720.000000	99.427468  
1719.000000	99.399867  
1718.000000	99.366155  
1717.000000	99.334072  
1716.000000	99.311475  
1715.000000	99.296149  
1714.000000	99.283016  
1713.000000	99.267688  
1712.000000	99.246041  
1711.000000	99.217558  
1710.000000	99.185163  
1709.000000	99.153084  
1708.000000	99.124573  
1707.000000	99.101360  
1706.000000	99.084245  
1705.000000	99.070795  
1704.000000	99.054514  
1703.000000	99.031268  
1702.000000	99.005483  
1701.000000	98.987802  
1700.000000	98.977551  
1699.000000	98.963973  
1698.000000	98.949901  
1697.000000	98.947787  
1696.000000	98.959849  
1695.000000	98.970875  
1694.000000	98.968729  
1693.000000	98.957290  
1692.000000	98.944706  
1691.000000	98.936623  
1690.000000	98.933704  
1689.000000	98.931431  
1688.000000	98.924774  
1687.000000	98.914507  
1686.000000	98.909742  
1685.000000	98.917698  
1684.000000	98.925676  
1683.000000	98.920119  
1682.000000	98.907835  
1681.000000	98.896650  
1680.000000	98.889826  
1679.000000	98.888160  
1678.000000	98.892100  
1677.000000	98.901503  
1676.000000	98.912536  
1675.000000	98.917971  
1674.000000	98.916463  
1673.000000	98.914079  
1672.000000	98.914105  
1671.000000	98.915614  
1670.000000	98.917178  
1669.000000	98.919259  
1668.000000	98.922427  
1667.000000	98.923585  
1666.000000	98.919283  
1665.000000	98.910867  
1664.000000	98.903474  
1663.000000	98.900753  
1662.000000	98.902164  
1661.000000	98.905735  
1660.000000	98.909887  
1659.000000	98.913994  
1658.000000	98.918031  
1657.000000	98.920791  
1656.000000	98.920740  
1655.000000	98.918603  
1654.000000	98.917276  
1653.000000	98.913675  
1652.000000	98.908580  
1651.000000	98.907511  
1650.000000	98.907843  
1649.000000	98.907910  
1648.000000	98.907853  
1647.000000	98.906424  
1646.000000	98.903135  
1645.000000	98.900819  
1644.000000	98.900864  
1643.000000	98.901722  
1642.000000	98.901470  
1641.000000	98.899826  
1640.000000	98.897185  
1639.000000	98.893948  
1638.000000	98.890830  
1637.000000	98.889447  
1636.000000	98.890269  
1635.000000	98.891657  
1634.000000	98.892501  
1633.000000	98.891905  
1632.000000	98.889575  
1631.000000	98.886875  
1630.000000	98.886060  
1629.000000	98.888075  
1628.000000	98.891186  
1627.000000	98.892242  
1626.000000	98.889575  
1625.000000	98.884322  
1624.000000	98.879461  
1623.000000	98.877536  
1622.000000	98.878501  
1621.000000	98.879943  
1620.000000	98.879800  
1619.000000	98.878506  
1618.000000	98.878270  
1617.000000	98.879124  
1616.000000	98.878709  
1615.000000	98.877276  
1614.000000	98.875839  
1613.000000	98.873871  
1612.000000	98.872105  
1611.000000	98.872801  
1610.000000	98.877330  
1609.000000	98.884486  
1608.000000	98.891838  
1607.000000	98.897892  
1606.000000	98.901962  
1605.000000	98.903985  
1604.000000	98.904919  
1603.000000	98.906757  
1602.000000	98.910478  
1601.000000	98.914257  
1600.000000	98.915796  
1599.000000	98.915700  
1598.000000	98.916894  
1597.000000	98.921196  
1596.000000	98.927667  
1595.000000	98.934178  
1594.000000	98.939403  
1593.000000	98.943016  
1592.000000	98.945324  
1591.000000	98.947293  
1590.000000	98.949717  
1589.000000	98.952087  
1588.000000	98.953386  
1587.000000	98.953966  
1586.000000	98.954951  
1585.000000	98.956586  
1584.000000	98.958419  
1583.000000	98.960600  
1582.000000	98.964117  
1581.000000	98.968947  
1580.000000	98.973652  
1579.000000	98.977209  
1578.000000	98.980190  
1577.000000	98.983299  
1576.000000	98.985865  
1575.000000	98.987517  
1574.000000	98.988811  
1573.000000	98.990105  
1572.000000	98.991688  
1571.000000	98.993887  
1570.000000	98.996601  
1569.000000	98.999264  
1568.000000	99.001511  
1567.000000	99.003485  
1566.000000	99.005542  
1565.000000	99.007862  
1564.000000	99.010317  
1563.000000	99.012515  
1562.000000	99.014398  
1561.000000	99.016248  
1560.000000	99.018467  
1559.000000	99.019913  
1558.000000	99.020778  
1557.000000	99.023175  
1556.000000	99.025907  
1555.000000	99.027700  
1554.000000	99.028657  
1553.000000	99.030478  
1552.000000	99.033696  
1551.000000	99.037053  
1550.000000	99.038828  
1549.000000	99.038717  
1548.000000	99.037959  
1547.000000	99.037720  
1546.000000	99.038437  
1545.000000	99.040361  
1544.000000	99.043508  
1543.000000	99.047512  
1542.000000	99.052468  
1541.000000	99.058453  
1540.000000	99.061547  
1539.000000	99.059357  
1538.000000	99.056540  
1537.000000	99.055769  
1536.000000	99.055771  
1535.000000	99.055722  
1534.000000	99.056467  
1533.000000	99.058831  
1532.000000	99.061733  
1531.000000	99.063164  
1530.000000	99.063445  
1529.000000	99.064670  
1528.000000	99.067818  
1527.000000	99.072280  
1526.000000	99.077464  
1525.000000	99.083401  
1524.000000	99.089045  
1523.000000	99.092884  
1522.000000	99.095139  
1521.000000	99.098223  
1520.000000	99.104151  
1519.000000	99.111939  
1518.000000	99.119820  
1517.000000	99.126222  
1516.000000	99.129364  
1515.000000	99.129950  
1514.000000	99.131286  
1513.000000	99.136336  
1512.000000	99.145130  
1511.000000	99.154166  
1510.000000	99.160130  
1509.000000	99.163325  
1508.000000	99.167656  
1507.000000	99.174178  
1506.000000	99.179100  
1505.000000	99.182675  
1504.000000	99.187180  
1503.000000	99.193148  
1502.000000	99.200327  
1501.000000	99.208725  
1500.000000	99.217727  
1499.000000	99.226794  
1498.000000	99.235719  
1497.000000	99.244883  
1496.000000	99.253464  
1495.000000	99.259490  
1494.000000	99.263017  
1493.000000	99.266821  
1492.000000	99.273717  
1491.000000	99.284356  
1490.000000	99.296505  
1489.000000	99.307708  
1488.000000	99.316296  
1487.000000	99.322172  
1486.000000	99.328197  
1485.000000	99.336148  
1484.000000	99.344511  
1483.000000	99.350742  
1482.000000	99.354116  
1481.000000	99.356760  
1480.000000	99.361787  
1479.000000	99.370406  
1478.000000	99.381300  
1477.000000	99.390989  
1476.000000	99.395627  
1475.000000	99.394199  
1474.000000	99.390612  
1473.000000	99.390317  
1472.000000	99.393263  
1471.000000	99.395800  
1470.000000	99.398559  
1469.000000	99.404761  
1468.000000	99.413665  
1467.000000	99.420665  
1466.000000	99.424121  
1465.000000	99.429084  
1464.000000	99.439228  
1463.000000	99.451081  
1462.000000	99.461689  
1461.000000	99.474325  
1460.000000	99.493599  
1459.000000	99.519800  
1458.000000	99.545935  
1457.000000	99.563260  
1456.000000	99.573713  
1455.000000	99.582720  
1454.000000	99.590866  
1453.000000	99.600093  
1452.000000	99.610561  
1451.000000	99.618857  
1450.000000	99.621178  
1449.000000	99.617212  
1448.000000	99.608372  
1447.000000	99.596191  
1446.000000	99.584485  
1445.000000	99.579024  
1444.000000	99.580687  
1443.000000	99.583782  
1442.000000	99.583130  
1441.000000	99.580427  
1440.000000	99.581656  
1439.000000	99.589703  
1438.000000	99.600808  
1437.000000	99.607620  
1436.000000	99.607639  
1435.000000	99.604678  
1434.000000	99.603376  
1433.000000	99.608276  
1432.000000	99.621679  
1431.000000	99.641089  
1430.000000	99.660177  
1429.000000	99.674194  
1428.000000	99.683557  
1427.000000	99.691116  
1426.000000	99.699131  
1425.000000	99.708605  
1424.000000	99.720011  
1423.000000	99.733482  
1422.000000	99.748888  
1421.000000	99.767279  
1420.000000	99.789057  
1419.000000	99.810083  
1418.000000	99.826473  
1417.000000	99.842596  
1416.000000	99.865268  
1415.000000	99.894673  
1414.000000	99.925174  
1413.000000	99.952461  
1412.000000	99.977552  
1411.000000	100.003143 
1410.000000	100.028419 
1409.000000	100.050700 
1408.000000	100.068847 
1407.000000	100.082327 
1406.000000	100.089977 
1405.000000	100.091833 
1404.000000	100.090284 
1403.000000	100.086892 
1402.000000	100.080596 
1401.000000	100.070708 
1400.000000	100.059340 
1399.000000	100.053049 
1398.000000	100.061794 
1397.000000	100.093928 
1396.000000	100.148773 
1395.000000	100.207117 
1394.000000	100.237465 
1393.000000	100.226389 
1392.000000	100.190992 
1391.000000	100.158069 
1390.000000	100.143880 
1389.000000	100.151577 
1388.000000	100.176671 
1387.000000	100.211451 
1386.000000	100.247702 
1385.000000	100.280877 
1384.000000	100.310928 
1383.000000	100.338315 
1382.000000	100.361385 
1381.000000	100.377854 
1380.000000	100.386103 
1379.000000	100.386130 
1378.000000	100.381029 
1377.000000	100.375728 
1376.000000	100.372622 
1375.000000	100.368841 
1374.000000	100.358911 
1373.000000	100.340459 
1372.000000	100.315755 
1371.000000	100.289209 
1370.000000	100.265260 
1369.000000	100.246776 
1368.000000	100.235262 
1367.000000	100.229489 
1366.000000	100.224015 
1365.000000	100.211601 
1364.000000	100.187627 
1363.000000	100.154973 
1362.000000	100.123567 
1361.000000	100.100414 
1360.000000	100.084108 
1359.000000	100.071625 
1358.000000	100.063462 
1357.000000	100.060226 
1356.000000	100.058691 
1355.000000	100.054251 
1354.000000	100.046176 
1353.000000	100.037456 
1352.000000	100.028652 
1351.000000	100.016924 
1350.000000	100.001551 
1349.000000	99.984751  
1348.000000	99.969039  
1347.000000	99.955746  
1346.000000	99.945803  
1345.000000	99.939388  
1344.000000	99.934347  
1343.000000	99.926705  
1342.000000	99.913805  
1341.000000	99.896579  
1340.000000	99.879306  
1339.000000	99.866644  
1338.000000	99.859022  
1337.000000	99.852460  
1336.000000	99.843709  
1335.000000	99.833791  
1334.000000	99.826758  
1333.000000	99.825654  
1332.000000	99.829363  
1331.000000	99.833374  
1330.000000	99.833390  
1329.000000	99.828683  
1328.000000	99.822814  
1327.000000	99.821196  
1326.000000	99.826277  
1325.000000	99.833990  
1324.000000	99.837074  
1323.000000	99.831458  
1322.000000	99.818952  
1321.000000	99.804962  
1320.000000	99.794711  
1319.000000	99.790867  
1318.000000	99.793028  
1317.000000	99.798920  
1316.000000	99.805982  
1315.000000	99.811689  
1314.000000	99.813883  
1313.000000	99.812832  
1312.000000	99.811946  
1311.000000	99.814060  
1310.000000	99.817418  
1309.000000	99.817954  
1308.000000	99.815368  
1307.000000	99.814249  
1306.000000	99.818121  
1305.000000	99.824599  
1304.000000	99.828875  
1303.000000	99.829322  
1302.000000	99.828029  
1301.000000	99.827451  
1300.000000	99.828421  
1299.000000	99.830167  
1298.000000	99.830759  
1297.000000	99.828762  
1296.000000	99.825628  
1295.000000	99.825299  
1294.000000	99.829761  
1293.000000	99.836405  
1292.000000	99.841095  
1291.000000	99.842444  
1290.000000	99.841745  
1289.000000	99.840289  
1288.000000	99.838818  
1287.000000	99.838390  
1286.000000	99.839643  
1285.000000	99.842555  
1284.000000	99.848523  
1283.000000	99.860218  
1282.000000	99.877589  
1281.000000	99.895398  
1280.000000	99.906825  
1279.000000	99.910172  
1278.000000	99.910201  
1277.000000	99.913008  
1276.000000	99.921172  
1275.000000	99.933430  
1274.000000	99.946740  
1273.000000	99.958295  
1272.000000	99.967168  
1271.000000	99.974917  
1270.000000	99.984127  
1269.000000	99.996510  
1268.000000	100.013301 
1267.000000	100.036054 
1266.000000	100.064282 
1265.000000	100.092703 
1264.000000	100.113738 
1263.000000	100.124232 
1262.000000	100.128471 
1261.000000	100.133382 
1260.000000	100.141769 
1259.000000	100.151352 
1258.000000	100.159396 
1257.000000	100.166755 
1256.000000	100.176538 
1255.000000	100.189575 
1254.000000	100.202789 
1253.000000	100.212764 
1252.000000	100.219532 
1251.000000	100.225009 
1250.000000	100.227910 
1249.000000	100.222540 
1248.000000	100.204333 
1247.000000	100.176450 
1246.000000	100.150704 
1245.000000	100.141715 
1244.000000	100.157271 
1243.000000	100.189966 
1242.000000	100.218561 
1241.000000	100.223675 
1240.000000	100.205582 
1239.000000	100.184803 
1238.000000	100.183130 
1237.000000	100.205463 
1236.000000	100.241227 
1235.000000	100.279106 
1234.000000	100.315908 
1233.000000	100.352602 
1232.000000	100.386558 
1231.000000	100.409840 
1230.000000	100.414673 
1229.000000	100.400260 
1228.000000	100.373512 
1227.000000	100.341247 
1226.000000	100.301155 
1225.000000	100.243543 
1224.000000	100.164723 
1223.000000	100.077110 
1222.000000	100.003316 
1221.000000	99.960072  
1220.000000	99.947588  
1219.000000	99.949707  
1218.000000	99.941366  
1217.000000	99.901242  
1216.000000	99.823997  
1215.000000	99.721984  
1214.000000	99.613425  
1213.000000	99.509394  
1212.000000	99.413257  
1211.000000	99.327005  
1210.000000	99.251249  
1209.000000	99.181393  
1208.000000	99.110940  
1207.000000	99.039079  
1206.000000	98.970325  
1205.000000	98.906263  
1204.000000	98.841499  
1203.000000	98.768388  
1202.000000	98.683325  
1201.000000	98.589129  
1200.000000	98.493909  
1199.000000	98.406245  
1198.000000	98.327960  
1197.000000	98.252642  
1196.000000	98.173657  
1195.000000	98.091427  
1194.000000	98.010319  
1193.000000	97.931761  
1192.000000	97.854786  
1191.000000	97.780480  
1190.000000	97.710677  
1189.000000	97.643921  
1188.000000	97.577378  
1187.000000	97.511234  
1186.000000	97.446806  
1185.000000	97.382022  
1184.000000	97.313715  
1183.000000	97.243542  
1182.000000	97.176939  
1181.000000	97.116012  
1180.000000	97.056828  
1179.000000	96.993300  
1178.000000	96.920775  
1177.000000	96.837142  
1176.000000	96.744329  
1175.000000	96.648477  
1174.000000	96.555424  
1173.000000	96.466105  
1172.000000	96.378661  
1171.000000	96.293146  
1170.000000	96.210926  
1169.000000	96.131502  
1168.000000	96.053671  
1167.000000	95.978792  
1166.000000	95.910630  
1165.000000	95.854277  
1164.000000	95.817587  
1163.000000	95.809945  
1162.000000	95.834865  
1161.000000	95.884604  
1160.000000	95.944217  
1159.000000	95.999292  
1158.000000	96.038520  
1157.000000	96.053219  
1156.000000	96.039781  
1155.000000	96.002562  
1154.000000	95.951153  
1153.000000	95.893887  
1152.000000	95.834523  
1151.000000	95.773188  
1150.000000	95.708314  
1149.000000	95.639222  
1148.000000	95.568720  
1147.000000	95.501388  
1146.000000	95.437947  
1145.000000	95.374316  
1144.000000	95.308000  
1143.000000	95.241731  
1142.000000	95.178286  
1141.000000	95.115686  
1140.000000	95.050870  
1139.000000	94.984310  
1138.000000	94.917108  
1137.000000	94.846841  
1136.000000	94.770643  
1135.000000	94.690194  
1134.000000	94.609994  
1133.000000	94.532545  
1132.000000	94.457923  
1131.000000	94.385260  
1130.000000	94.311580  
1129.000000	94.232174  
1128.000000	94.145557  
1127.000000	94.056037  
1126.000000	93.969249  
1125.000000	93.887667  
1124.000000	93.811751  
1123.000000	93.741201  
1122.000000	93.673148  
1121.000000	93.604078  
1120.000000	93.536223  
1119.000000	93.477029  
1118.000000	93.429414  
1117.000000	93.387281  
1116.000000	93.342917  
1115.000000	93.294058  
1114.000000	93.242239  
1113.000000	93.190873  
1112.000000	93.147481  
1111.000000	93.120120  
1110.000000	93.107229  
1109.000000	93.096970  
1108.000000	93.079820  
1107.000000	93.056487  
1106.000000	93.031477  
1105.000000	93.005829  
1104.000000	92.980593  
1103.000000	92.961024  
1102.000000	92.950365  
1101.000000	92.944823  
1100.000000	92.939555  
1099.000000	92.934347  
1098.000000	92.930584  
1097.000000	92.924971  
1096.000000	92.912854  
1095.000000	92.894909  
1094.000000	92.876400  
1093.000000	92.861333  
1092.000000	92.850464  
1091.000000	92.842718  
1090.000000	92.835340  
1089.000000	92.824535  
1088.000000	92.808793  
1087.000000	92.790695  
1086.000000	92.774347  
1085.000000	92.762748  
1084.000000	92.757864  
1083.000000	92.759880  
1082.000000	92.765029  
1081.000000	92.767130  
1080.000000	92.762471  
1079.000000	92.751003  
1078.000000	92.732783  
1077.000000	92.706302  
1076.000000	92.670370  
1075.000000	92.623998  
1074.000000	92.563714  
1073.000000	92.484847  
1072.000000	92.388474  
1071.000000	92.287054  
1070.000000	92.201886  
1069.000000	92.150528  
1068.000000	92.128361  
1067.000000	92.099237  
1066.000000	92.014475  
1065.000000	91.853336  
1064.000000	91.645129  
1063.000000	91.448030  
1062.000000	91.308544  
1061.000000	91.243215  
1060.000000	91.245184  
1059.000000	91.289289  
1058.000000	91.335346  
1057.000000	91.348491  
1056.000000	91.323340  
1055.000000	91.279077  
1054.000000	91.229894  
1053.000000	91.169308  
1052.000000	91.081857  
1051.000000	90.955916  
1050.000000	90.784199  
1049.000000	90.568639  
1048.000000	90.329055  
1047.000000	90.090394  
1046.000000	89.855845  
1045.000000	89.607394  
1044.000000	89.336471  
1043.000000	89.058704  
1042.000000	88.793628  
1041.000000	88.544981  
1040.000000	88.308079  
1039.000000	88.080986  
1038.000000	87.858869  
1037.000000	87.632211  
1036.000000	87.402264  
1035.000000	87.185999  
1034.000000	86.995444  
1033.000000	86.825902  
1032.000000	86.676639  
1031.000000	86.568292  
1030.000000	86.520524  
1029.000000	86.517648  
1028.000000	86.511150  
1027.000000	86.458133  
1026.000000	86.353142  
1025.000000	86.226239  
1024.000000	86.117605  
1023.000000	86.050788  
1022.000000	86.020259  
1021.000000	86.001825  
1020.000000	85.976065  
1019.000000	85.940135  
1018.000000	85.901208  
1017.000000	85.867842  
1016.000000	85.847528  
1015.000000	85.842279  
1014.000000	85.843171  
1013.000000	85.836394  
1012.000000	85.816286  
1011.000000	85.786374  
1010.000000	85.750160  
1009.000000	85.710995  
1008.000000	85.679164  
1007.000000	85.665900  
1006.000000	85.668394  
1005.000000	85.672137  
1004.000000	85.670178  
1003.000000	85.668933  
1002.000000	85.673577  
1001.000000	85.680293  
1000.000000	85.686516  
999.000000	 85.697377  
998.000000	 85.717247  
997.000000	 85.744029  
996.000000	 85.774995  
995.000000	 85.809626  
994.000000	 85.844836  
993.000000	 85.876696  
992.000000	 85.908808  
991.000000	 85.949798  
990.000000	 86.001187  
989.000000	 86.057006  
988.000000	 86.116012  
987.000000	 86.184143  
986.000000	 86.264002  
985.000000	 86.352238  
984.000000	 86.447694  
983.000000	 86.552575  
982.000000	 86.666455  
981.000000	 86.788042  
980.000000	 86.920757  
979.000000	 87.066554  
978.000000	 87.216826  
977.000000	 87.361223  
976.000000	 87.503812  
975.000000	 87.657891  
974.000000	 87.825947  
973.000000	 87.997647  
972.000000	 88.166930  
971.000000	 88.337514  
970.000000	 88.511092  
969.000000	 88.683834  
968.000000	 88.856268  
967.000000	 89.033951  
966.000000	 89.216428  
965.000000	 89.397281  
964.000000	 89.576413  
963.000000	 89.759863  
962.000000	 89.945436  
961.000000	 90.121122  
960.000000	 90.281312  
959.000000	 90.433612  
958.000000	 90.585969  
957.000000	 90.736658  
956.000000	 90.880611  
955.000000	 91.016353  
954.000000	 91.142748  
953.000000	 91.257082  
952.000000	 91.360458  
951.000000	 91.458951  
950.000000	 91.556597  
949.000000	 91.652311  
948.000000	 91.744274  
947.000000	 91.831302  
946.000000	 91.910313  
945.000000	 91.979113  
944.000000	 92.040882  
943.000000	 92.099337  
942.000000	 92.151839  
941.000000	 92.195584  
940.000000	 92.237522  
939.000000	 92.287450  
938.000000	 92.342974  
937.000000	 92.393124  
936.000000	 92.436114  
935.000000	 92.481035  
934.000000	 92.531911  
933.000000	 92.583521  
932.000000	 92.634779  
931.000000	 92.692414  
930.000000	 92.757530  
929.000000	 92.821265  
928.000000	 92.878354  
927.000000	 92.933185  
926.000000	 92.987939  
925.000000	 93.037127  
924.000000	 93.080054  
923.000000	 93.126753  
922.000000	 93.183139  
921.000000	 93.239641  
920.000000	 93.283389  
919.000000	 93.314970  
918.000000	 93.345682  
917.000000	 93.384226  
916.000000	 93.433091  
915.000000	 93.492528  
914.000000	 93.560902  
913.000000	 93.634399  
912.000000	 93.710639  
911.000000	 93.789700  
910.000000	 93.870941  
909.000000	 93.955058  
908.000000	 94.050640  
907.000000	 94.170715  
906.000000	 94.319089  
905.000000	 94.485724  
904.000000	 94.657577  
903.000000	 94.827802  
902.000000	 94.993463  
901.000000	 95.153263  
900.000000	 95.311266  
899.000000	 95.475153  
898.000000	 95.646243  
897.000000	 95.817096  
896.000000	 95.982340  
895.000000	 96.145130  
894.000000	 96.308335  
893.000000	 96.465157  
892.000000	 96.604367  
891.000000	 96.722517  
890.000000	 96.828215  
889.000000	 96.937250  
888.000000	 97.064650  
887.000000	 97.215595  
886.000000	 97.379506  
885.000000	 97.537042  
884.000000	 97.677419  
883.000000	 97.806275  
882.000000	 97.933196  
881.000000	 98.054000  
880.000000	 98.150046  
879.000000	 98.205540  
878.000000	 98.224214  
877.000000	 98.230349  
876.000000	 98.253555  
875.000000	 98.308097  
874.000000	 98.383110  
873.000000	 98.454307  
872.000000	 98.508153  
871.000000	 98.554748  
870.000000	 98.616788  
869.000000	 98.707395  
868.000000	 98.819217  
867.000000	 98.931909  
866.000000	 99.028285  
865.000000	 99.105433  
864.000000	 99.172995  
863.000000	 99.241564  
862.000000	 99.312324  
861.000000	 99.377819  
860.000000	 99.432007  
859.000000	 99.477907  
858.000000	 99.524884  
857.000000	 99.579257  
856.000000	 99.638435  
855.000000	 99.694640  
854.000000	 99.744073  
853.000000	 99.790357  
852.000000	 99.836845  
851.000000	 99.878287  
850.000000	 99.906206  
849.000000	 99.922842  
848.000000	 99.942358  
847.000000	 99.973984  
846.000000	 100.009935 
845.000000	 100.035913 
844.000000	 100.048323 
843.000000	 100.053817 
842.000000	 100.056157 
841.000000	 100.052636 
840.000000	 100.041176 
839.000000	 100.020839 
838.000000	 99.985685  
837.000000	 99.929295  
836.000000	 99.859011  
835.000000	 99.796526  
834.000000	 99.757539  
833.000000	 99.735762  
832.000000	 99.712259  
831.000000	 99.676691  
830.000000	 99.636142  
829.000000	 99.607951  
828.000000	 99.607867  
827.000000	 99.639744  
826.000000	 99.689827  
825.000000	 99.733473  
824.000000	 99.753233  
823.000000	 99.750616  
822.000000	 99.739523  
821.000000	 99.731031  
820.000000	 99.725039  
819.000000	 99.711623  
818.000000	 99.678454  
817.000000	 99.620779  
816.000000	 99.545336  
815.000000	 99.461554  
814.000000	 99.369207  
813.000000	 99.258521  
812.000000	 99.119843  
811.000000	 98.944871  
810.000000	 98.718845  
809.000000	 98.424132  
808.000000	 98.059634  
807.000000	 97.650153  
806.000000	 97.228276  
805.000000	 96.810347  
804.000000	 96.396419  
803.000000	 95.988047  
802.000000	 95.598197  
801.000000	 95.248253  
800.000000	 94.962499  
799.000000	 94.761040  
798.000000	 94.650413  
797.000000	 94.622270  
796.000000	 94.662049  
795.000000	 94.752817  
794.000000	 94.871482  
793.000000	 94.993489  
792.000000	 95.106774  
791.000000	 95.213078  
790.000000	 95.310957  
789.000000	 95.384634  
788.000000	 95.414520  
787.000000	 95.393092  
786.000000	 95.325788  
785.000000	 95.220998  
784.000000	 95.084900  
783.000000	 94.924115  
782.000000	 94.749856  
781.000000	 94.581021  
780.000000	 94.443851  
779.000000	 94.363465  
778.000000	 94.352237  
777.000000	 94.408218  
776.000000	 94.522942  
775.000000	 94.684761  
774.000000	 94.876990  
773.000000	 95.082242  
772.000000	 95.289493  
771.000000	 95.490456  
770.000000	 95.671413  
769.000000	 95.818671  
768.000000	 95.932958  
767.000000	 96.030052  
766.000000	 96.125066  
765.000000	 96.221667  
764.000000	 96.315858  
763.000000	 96.401750  
762.000000	 96.472856  
761.000000	 96.526402  
760.000000	 96.568961  
759.000000	 96.611417  
758.000000	 96.656901  
757.000000	 96.700225  
756.000000	 96.739786  
755.000000	 96.782094  
754.000000	 96.833129  
753.000000	 96.893576  
752.000000	 96.965037  
751.000000	 97.052469  
750.000000	 97.156354  
749.000000	 97.267513  
748.000000	 97.372654  
747.000000	 97.462112  
746.000000	 97.533212  
745.000000	 97.592544  
744.000000	 97.655042  
743.000000	 97.733870  
742.000000	 97.830153  
741.000000	 97.936880  
740.000000	 98.049516  
739.000000	 98.165590  
738.000000	 98.277726  
737.000000	 98.377675  
736.000000	 98.466332  
735.000000	 98.548887  
734.000000	 98.621791  
733.000000	 98.677440  
732.000000	 98.720699  
731.000000	 98.766989  
730.000000	 98.822985  
729.000000	 98.882778  
728.000000	 98.939848  
727.000000	 98.991030  
726.000000	 99.032655  
725.000000	 99.062782  
724.000000	 99.088871  
723.000000	 99.123951  
722.000000	 99.172916  
721.000000	 99.230057  
720.000000	 99.289404  
719.000000	 99.348672  
718.000000	 99.403316  
717.000000	 99.446604  
716.000000	 99.478443  
715.000000	 99.504756  
714.000000	 99.526250  
713.000000	 99.537964  
712.000000	 99.539851  
711.000000	 99.536665  
710.000000	 99.526024  
709.000000	 99.501472  
708.000000	 99.466246  
707.000000	 99.432734  
706.000000	 99.408383  
705.000000	 99.386356  
704.000000	 99.350179  
703.000000	 99.284326  
702.000000	 99.176607  
701.000000	 99.021262  
700.000000	 98.826474  
699.000000	 98.605512  
698.000000	 98.365787  
697.000000	 98.118680  
696.000000	 97.900300  
695.000000	 97.769267  
694.000000	 97.764779  
693.000000	 97.876155  
692.000000	 98.056925  
691.000000	 98.253636  
690.000000	 98.428421  
689.000000	 98.566547  
688.000000	 98.673941  
687.000000	 98.765791  
686.000000	 98.846242  
685.000000	 98.911377  
684.000000	 98.972170  
683.000000	 99.049515  
682.000000	 99.145252  
681.000000	 99.237809  
680.000000	 99.312196  
679.000000	 99.371799  
678.000000	 99.417878  
677.000000	 99.450178  
676.000000	 99.478906  
675.000000	 99.519399  
674.000000	 99.570371  
673.000000	 99.610885  
672.000000	 99.619214  
671.000000	 99.584808  
670.000000	 99.498415  
669.000000	 99.374242  
668.000000	 99.332595  
667.000000	 99.464316  
666.000000	 99.656863  
665.000000	 99.839961  
664.000000	 100.002570 
663.000000	 100.130269 
662.000000	 100.209580 
661.000000	 100.250663 
660.000000	 100.272705 
659.000000	 100.288663 
658.000000	 100.309057 
657.000000	 100.346977 
656.000000	 100.392395 
655.000000	 100.412753 
654.000000	 100.398551 
653.000000	 100.376186 
652.000000	 100.362811 
651.000000	 100.347947 
650.000000	 100.328136 

