PE IR                   SPECTRUM    ASCII       PEDS        1.60        
  -1
~SP.SP
22/12/06
16:06:21.00
23/01/09
14:58:09.00
Administrator

650.000000
4









FRONTIER FT-IR,CPU32 MAIN 00.09.9951 07-SEPTEMBER-2011 11:49:41
MIR TGS
MIR
OPTKBR
90694
0.200000

4.000000
STRONG
RATIO
SPECTRUM
MAGNITUDE
MIRACLE ATR
DOUBLE

COMBINED


0


#HDR
-1
-1
#GR
CM-1
%T
0.00002384185791015625
0.0
4000.000000
-1.000000
3351
8
102.321506
96.034030
#DATA
4000.000000	102.281280 
3999.000000	102.279539 
3998.000000	102.275568 
3997.000000	102.270733 
3996.000000	102.266960 
3995.000000	102.265280 
3994.000000	102.265343 
3993.000000	102.265637 
3992.000000	102.264667 
3991.000000	102.262302 
3990.000000	102.259889 
3989.000000	102.259007 
3988.000000	102.260187 
3987.000000	102.262806 
3986.000000	102.265835 
3985.000000	102.268443 
3984.000000	102.269948 
3983.000000	102.269764 
3982.000000	102.267863 
3981.000000	102.265250 
3980.000000	102.263522 
3979.000000	102.263624 
3978.000000	102.264959 
3977.000000	102.265786 
3976.000000	102.264685 
3975.000000	102.261759 
3974.000000	102.258631 
3973.000000	102.256948 
3972.000000	102.256787 
3971.000000	102.256655 
3970.000000	102.254997 
3969.000000	102.251591 
3968.000000	102.247527 
3967.000000	102.244167 
3966.000000	102.242186 
3965.000000	102.241469 
3964.000000	102.241490 
3963.000000	102.241659 
3962.000000	102.241561 
3961.000000	102.241050 
3960.000000	102.240323 
3959.000000	102.239862 
3958.000000	102.240136 
3957.000000	102.241170 
3956.000000	102.242354 
3955.000000	102.242911 
3954.000000	102.242542 
3953.000000	102.241485 
3952.000000	102.240061 
3951.000000	102.238368 
3950.000000	102.236462 
3949.000000	102.234586 
3948.000000	102.233018 
3947.000000	102.231864 
3946.000000	102.231061 
3945.000000	102.230535 
3944.000000	102.230304 
3943.000000	102.230361 
3942.000000	102.230350 
3941.000000	102.229572 
3940.000000	102.227569 
3939.000000	102.224517 
3938.000000	102.221235 
3937.000000	102.218732 
3936.000000	102.217551 
3935.000000	102.217537 
3934.000000	102.217984 
3933.000000	102.218059 
3932.000000	102.217161 
3931.000000	102.215162 
3930.000000	102.212816 
3929.000000	102.211474 
3928.000000	102.211836 
3927.000000	102.212935 
3926.000000	102.212970 
3925.000000	102.211396 
3924.000000	102.209185 
3923.000000	102.206985 
3922.000000	102.204405 
3921.000000	102.201248 
3920.000000	102.198298 
3919.000000	102.196382 
3918.000000	102.195380 
3917.000000	102.194706 
3916.000000	102.194178 
3915.000000	102.193721 
3914.000000	102.193065 
3913.000000	102.191921 
3912.000000	102.190325 
3911.000000	102.188332 
3910.000000	102.186023 
3909.000000	102.184338 
3908.000000	102.184907 
3907.000000	102.188496 
3906.000000	102.193263 
3905.000000	102.195908 
3904.000000	102.194722 
3903.000000	102.190363 
3902.000000	102.184143 
3901.000000	102.176690 
3900.000000	102.168787 
3899.000000	102.161974 
3898.000000	102.157531 
3897.000000	102.155386 
3896.000000	102.154820 
3895.000000	102.155254 
3894.000000	102.156091 
3893.000000	102.156368 
3892.000000	102.155529 
3891.000000	102.153898 
3890.000000	102.152171 
3889.000000	102.150889 
3888.000000	102.149812 
3887.000000	102.148493 
3886.000000	102.147535 
3885.000000	102.147449 
3884.000000	102.147505 
3883.000000	102.146683 
3882.000000	102.144798 
3881.000000	102.142521 
3880.000000	102.140628 
3879.000000	102.139213 
3878.000000	102.138011 
3877.000000	102.136788 
3876.000000	102.135393 
3875.000000	102.133847 
3874.000000	102.132299 
3873.000000	102.130796 
3872.000000	102.129255 
3871.000000	102.127663 
3870.000000	102.126117 
3869.000000	102.124641 
3868.000000	102.123185 
3867.000000	102.121730 
3866.000000	102.120294 
3865.000000	102.118895 
3864.000000	102.117546 
3863.000000	102.116243 
3862.000000	102.114968 
3861.000000	102.113713 
3860.000000	102.112476 
3859.000000	102.111246 
3858.000000	102.110011 
3857.000000	102.108749 
3856.000000	102.107426 
3855.000000	102.106003 
3854.000000	102.104476 
3853.000000	102.102873 
3852.000000	102.101216 
3851.000000	102.099510 
3850.000000	102.097758 
3849.000000	102.095967 
3848.000000	102.094140 
3847.000000	102.092288 
3846.000000	102.090418 
3845.000000	102.088542 
3844.000000	102.086684 
3843.000000	102.084877 
3842.000000	102.083136 
3841.000000	102.081428 
3840.000000	102.079691 
3839.000000	102.077899 
3838.000000	102.076089 
3837.000000	102.074342 
3836.000000	102.072762 
3835.000000	102.071441 
3834.000000	102.070354 
3833.000000	102.069310 
3832.000000	102.068126 
3831.000000	102.066779 
3830.000000	102.065423 
3829.000000	102.064240 
3828.000000	102.063266 
3827.000000	102.062412 
3826.000000	102.061664 
3825.000000	102.061086 
3824.000000	102.060503 
3823.000000	102.059304 
3822.000000	102.057325 
3821.000000	102.055495 
3820.000000	102.054143 
3819.000000	102.052530 
3818.000000	102.050047 
3817.000000	102.047114 
3816.000000	102.045424 
3815.000000	102.045681 
3814.000000	102.046218 
3813.000000	102.045153 
3812.000000	102.042399 
3811.000000	102.039378 
3810.000000	102.037193 
3809.000000	102.035180 
3808.000000	102.032301 
3807.000000	102.029689 
3806.000000	102.029203 
3805.000000	102.030941 
3804.000000	102.033142 
3803.000000	102.033377 
3802.000000	102.032170 
3801.000000	102.032508 
3800.000000	102.034599 
3799.000000	102.036349 
3798.000000	102.036656 
3797.000000	102.036405 
3796.000000	102.037115 
3795.000000	102.038458 
3794.000000	102.038561 
3793.000000	102.036674 
3792.000000	102.034038 
3791.000000	102.032083 
3790.000000	102.030694 
3789.000000	102.028774 
3788.000000	102.025789 
3787.000000	102.022196 
3786.000000	102.018959 
3785.000000	102.016904 
3784.000000	102.016175 
3783.000000	102.015729 
3782.000000	102.014034 
3781.000000	102.010623 
3780.000000	102.007301 
3779.000000	102.006461 
3778.000000	102.008199 
3777.000000	102.010491 
3776.000000	102.011525 
3775.000000	102.011337 
3774.000000	102.011098 
3773.000000	102.011366 
3772.000000	102.011476 
3771.000000	102.010896 
3770.000000	102.010113 
3769.000000	102.009489 
3768.000000	102.008526 
3767.000000	102.006828 
3766.000000	102.004835 
3765.000000	102.003375 
3764.000000	102.002684 
3763.000000	102.002217 
3762.000000	102.001355 
3761.000000	102.000046 
3760.000000	101.998727 
3759.000000	101.997600 
3758.000000	101.996442 
3757.000000	101.995191 
3756.000000	101.994016 
3755.000000	101.992937 
3754.000000	101.991745 
3753.000000	101.990339 
3752.000000	101.988982 
3751.000000	101.987926 
3750.000000	101.986887 
3749.000000	101.985512 
3748.000000	101.984206 
3747.000000	101.983408 
3746.000000	101.982289 
3745.000000	101.980691 
3744.000000	101.980335 
3743.000000	101.980830 
3742.000000	101.979849 
3741.000000	101.977003 
3740.000000	101.974537 
3739.000000	101.974964 
3738.000000	101.977473 
3737.000000	101.978360 
3736.000000	101.976780 
3735.000000	101.976409 
3734.000000	101.979129 
3733.000000	101.981931 
3732.000000	101.982293 
3731.000000	101.981155 
3730.000000	101.980120 
3729.000000	101.978422 
3728.000000	101.973888 
3727.000000	101.967226 
3726.000000	101.962276 
3725.000000	101.960697 
3724.000000	101.960200 
3723.000000	101.957993 
3722.000000	101.953767 
3721.000000	101.949102 
3720.000000	101.945922 
3719.000000	101.944630 
3718.000000	101.943537 
3717.000000	101.941359 
3716.000000	101.938922 
3715.000000	101.937446 
3714.000000	101.936074 
3713.000000	101.932660 
3712.000000	101.927568 
3711.000000	101.923327 
3710.000000	101.921212 
3709.000000	101.920724 
3708.000000	101.920604 
3707.000000	101.920558 
3706.000000	101.922058 
3705.000000	101.926615 
3704.000000	101.933901 
3703.000000	101.942394 
3702.000000	101.951424 
3701.000000	101.960813 
3700.000000	101.969563 
3699.000000	101.975889 
3698.000000	101.978226 
3697.000000	101.977318 
3696.000000	101.975951 
3695.000000	101.974775 
3694.000000	101.972218 
3693.000000	101.968069 
3692.000000	101.963726 
3691.000000	101.959296 
3690.000000	101.954527 
3689.000000	101.952251 
3688.000000	101.954100 
3687.000000	101.957395 
3686.000000	101.958712 
3685.000000	101.956844 
3684.000000	101.953825 
3683.000000	101.953142 
3682.000000	101.954216 
3681.000000	101.953076 
3680.000000	101.949640 
3679.000000	101.948778 
3678.000000	101.950917 
3677.000000	101.948610 
3676.000000	101.943358 
3675.000000	101.943015 
3674.000000	101.943749 
3673.000000	101.938758 
3672.000000	101.926224 
3671.000000	101.909929 
3670.000000	101.899852 
3669.000000	101.898023 
3668.000000	101.896363 
3667.000000	101.890967 
3666.000000	101.884564 
3665.000000	101.880042 
3664.000000	101.877393 
3663.000000	101.874719 
3662.000000	101.869922 
3661.000000	101.862284 
3660.000000	101.852349 
3659.000000	101.840968 
3658.000000	101.828778 
3657.000000	101.817739 
3656.000000	101.810246 
3655.000000	101.805234 
3654.000000	101.799799 
3653.000000	101.792464 
3652.000000	101.782915 
3651.000000	101.772883 
3650.000000	101.766816 
3649.000000	101.765729 
3648.000000	101.764359 
3647.000000	101.757808 
3646.000000	101.746222 
3645.000000	101.732823 
3644.000000	101.721230 
3643.000000	101.713685 
3642.000000	101.709483 
3641.000000	101.704642 
3640.000000	101.694345 
3639.000000	101.678149 
3638.000000	101.661682 
3637.000000	101.651592 
3636.000000	101.649289 
3635.000000	101.650602 
3634.000000	101.651349 
3633.000000	101.651065 
3632.000000	101.650864 
3631.000000	101.648078 
3630.000000	101.640365 
3629.000000	101.634712 
3628.000000	101.634344 
3627.000000	101.631249 
3626.000000	101.620700 
3625.000000	101.606152 
3624.000000	101.593867 
3623.000000	101.588528 
3622.000000	101.590543 
3621.000000	101.596490 
3620.000000	101.602284 
3619.000000	101.605002 
3618.000000	101.602475 
3617.000000	101.595381 
3616.000000	101.587251 
3615.000000	101.580884 
3614.000000	101.578003 
3613.000000	101.579916 
3612.000000	101.585854 
3611.000000	101.592595 
3610.000000	101.597470 
3609.000000	101.601423 
3608.000000	101.606961 
3607.000000	101.613050 
3606.000000	101.615764 
3605.000000	101.614228 
3604.000000	101.611638 
3603.000000	101.611270 
3602.000000	101.613185 
3601.000000	101.615915 
3600.000000	101.619267 
3599.000000	101.624139 
3598.000000	101.630737 
3597.000000	101.638277 
3596.000000	101.645621 
3595.000000	101.652106 
3594.000000	101.657702 
3593.000000	101.662356 
3592.000000	101.667464 
3591.000000	101.675848 
3590.000000	101.687888 
3589.000000	101.699258 
3588.000000	101.704697 
3587.000000	101.702218 
3586.000000	101.693369 
3585.000000	101.682190 
3584.000000	101.672329 
3583.000000	101.664815 
3582.000000	101.659230 
3581.000000	101.655685 
3580.000000	101.654809 
3579.000000	101.656245 
3578.000000	101.658961 
3577.000000	101.662895 
3576.000000	101.669390 
3575.000000	101.679138 
3574.000000	101.690314 
3573.000000	101.699569 
3572.000000	101.705198 
3571.000000	101.708645 
3570.000000	101.711917 
3569.000000	101.714530 
3568.000000	101.714517 
3567.000000	101.711201 
3566.000000	101.705570 
3565.000000	101.700393 
3564.000000	101.699087 
3563.000000	101.702588 
3562.000000	101.708305 
3561.000000	101.712378 
3560.000000	101.713031 
3559.000000	101.711508 
3558.000000	101.710276 
3557.000000	101.710948 
3556.000000	101.713746 
3555.000000	101.717888 
3554.000000	101.721992 
3553.000000	101.724807 
3552.000000	101.726001 
3551.000000	101.726239 
3550.000000	101.726456 
3549.000000	101.726881 
3548.000000	101.726880 
3547.000000	101.725997 
3546.000000	101.725016 
3545.000000	101.725550 
3544.000000	101.728487 
3543.000000	101.733064 
3542.000000	101.737587 
3541.000000	101.740986 
3540.000000	101.743402 
3539.000000	101.745459 
3538.000000	101.747406 
3537.000000	101.749375 
3536.000000	101.751853 
3535.000000	101.755454 
3534.000000	101.760275 
3533.000000	101.765639 
3532.000000	101.770481 
3531.000000	101.773986 
3530.000000	101.776177 
3529.000000	101.777985 
3528.000000	101.780431 
3527.000000	101.783335 
3526.000000	101.785306 
3525.000000	101.785330 
3524.000000	101.784061 
3523.000000	101.783209 
3522.000000	101.783758 
3521.000000	101.785470 
3520.000000	101.787915 
3519.000000	101.791240 
3518.000000	101.795604 
3517.000000	101.800377 
3516.000000	101.804412 
3515.000000	101.807046 
3514.000000	101.808585 
3513.000000	101.809983 
3512.000000	101.812314 
3511.000000	101.816277 
3510.000000	101.821757 
3509.000000	101.827673 
3508.000000	101.832558 
3507.000000	101.835752 
3506.000000	101.837733 
3505.000000	101.839602 
3504.000000	101.842239 
3503.000000	101.845715 
3502.000000	101.849533 
3501.000000	101.853188 
3500.000000	101.856483 
3499.000000	101.859431 
3498.000000	101.862071 
3497.000000	101.864470 
3496.000000	101.866779 
3495.000000	101.869224 
3494.000000	101.872005 
3493.000000	101.875188 
3492.000000	101.878668 
3491.000000	101.882220 
3490.000000	101.885636 
3489.000000	101.888849 
3488.000000	101.891929 
3487.000000	101.894994 
3486.000000	101.898126 
3485.000000	101.901338 
3484.000000	101.904565 
3483.000000	101.907665 
3482.000000	101.910512 
3481.000000	101.913147 
3480.000000	101.915828 
3479.000000	101.918809 
3478.000000	101.922055 
3477.000000	101.925238 
3476.000000	101.928069 
3475.000000	101.930636 
3474.000000	101.933347 
3473.000000	101.936458 
3472.000000	101.939773 
3471.000000	101.942873 
3470.000000	101.945533 
3469.000000	101.947746 
3468.000000	101.949581 
3467.000000	101.951317 
3466.000000	101.953581 
3465.000000	101.956966 
3464.000000	101.961313 
3463.000000	101.965528 
3462.000000	101.968507 
3461.000000	101.969951 
3460.000000	101.970431 
3459.000000	101.970792 
3458.000000	101.971575 
3457.000000	101.973004 
3456.000000	101.975167 
3455.000000	101.978037 
3454.000000	101.981300 
3453.000000	101.984463 
3452.000000	101.987467 
3451.000000	101.990962 
3450.000000	101.995603 
3449.000000	102.001045 
3448.000000	102.006149 
3447.000000	102.010268 
3446.000000	102.013677 
3445.000000	102.016651 
3444.000000	102.018896 
3443.000000	102.020398 
3442.000000	102.022005 
3441.000000	102.024218 
3440.000000	102.025869 
3439.000000	102.025278 
3438.000000	102.022678 
3437.000000	102.020576 
3436.000000	102.021127 
3435.000000	102.023834 
3434.000000	102.026267 
3433.000000	102.026709 
3432.000000	102.025689 
3431.000000	102.024941 
3430.000000	102.025505 
3429.000000	102.027185 
3428.000000	102.029522 
3427.000000	102.032617 
3426.000000	102.036727 
3425.000000	102.041403 
3424.000000	102.045472 
3423.000000	102.047961 
3422.000000	102.048904 
3421.000000	102.049214 
3420.000000	102.049979 
3419.000000	102.052013 
3418.000000	102.055551 
3417.000000	102.059680 
3416.000000	102.062407 
3415.000000	102.062248 
3414.000000	102.059945 
3413.000000	102.058081 
3412.000000	102.058390 
3411.000000	102.059982 
3410.000000	102.060864 
3409.000000	102.060509 
3408.000000	102.060043 
3407.000000	102.060202 
3406.000000	102.060310 
3405.000000	102.059516 
3404.000000	102.057962 
3403.000000	102.056274 
3402.000000	102.054710 
3401.000000	102.053458 
3400.000000	102.053276 
3399.000000	102.054987 
3398.000000	102.058276 
3397.000000	102.061434 
3396.000000	102.062530 
3395.000000	102.060907 
3394.000000	102.057693 
3393.000000	102.055142 
3392.000000	102.054927 
3391.000000	102.056784 
3390.000000	102.058925 
3389.000000	102.059998 
3388.000000	102.060555 
3387.000000	102.062299 
3386.000000	102.066018 
3385.000000	102.070565 
3384.000000	102.073884 
3383.000000	102.074848 
3382.000000	102.073948 
3381.000000	102.072460 
3380.000000	102.071174 
3379.000000	102.069918 
3378.000000	102.068191 
3377.000000	102.065987 
3376.000000	102.063927 
3375.000000	102.062702 
3374.000000	102.062548 
3373.000000	102.063125 
3372.000000	102.063620 
3371.000000	102.063050 
3370.000000	102.060873 
3369.000000	102.057610 
3368.000000	102.054678 
3367.000000	102.053191 
3366.000000	102.052917 
3365.000000	102.052662 
3364.000000	102.051692 
3363.000000	102.050471 
3362.000000	102.049809 
3361.000000	102.049548 
3360.000000	102.048529 
3359.000000	102.045957 
3358.000000	102.042436 
3357.000000	102.039428 
3356.000000	102.037695 
3355.000000	102.036476 
3354.000000	102.034296 
3353.000000	102.030479 
3352.000000	102.025832 
3351.000000	102.021992 
3350.000000	102.020059 
3349.000000	102.019890 
3348.000000	102.020236 
3347.000000	102.019634 
3346.000000	102.017496 
3345.000000	102.014403 
3344.000000	102.011470 
3343.000000	102.009266 
3342.000000	102.007463 
3341.000000	102.005504 
3340.000000	102.003275 
3339.000000	102.000916 
3338.000000	101.998236 
3337.000000	101.994857 
3336.000000	101.990946 
3335.000000	101.987359 
3334.000000	101.984775 
3333.000000	101.982965 
3332.000000	101.981090 
3331.000000	101.978609 
3330.000000	101.975601 
3329.000000	101.972278 
3328.000000	101.968579 
3327.000000	101.964473 
3326.000000	101.960381 
3325.000000	101.956885 
3324.000000	101.954084 
3323.000000	101.951365 
3322.000000	101.947929 
3321.000000	101.943510 
3320.000000	101.938526 
3319.000000	101.933619 
3318.000000	101.929116 
3317.000000	101.924986 
3316.000000	101.921086 
3315.000000	101.917234 
3314.000000	101.913125 
3313.000000	101.908470 
3312.000000	101.903327 
3311.000000	101.898163 
3310.000000	101.893433 
3309.000000	101.889137 
3308.000000	101.884886 
3307.000000	101.880326 
3306.000000	101.875418 
3305.000000	101.870372 
3304.000000	101.865464 
3303.000000	101.860906 
3302.000000	101.856759 
3301.000000	101.852846 
3300.000000	101.848779 
3299.000000	101.844182 
3298.000000	101.838957 
3297.000000	101.833310 
3296.000000	101.827629 
3295.000000	101.822241 
3294.000000	101.817248 
3293.000000	101.812529 
3292.000000	101.807875 
3291.000000	101.803159 
3290.000000	101.798356 
3289.000000	101.793409 
3288.000000	101.788200 
3287.000000	101.782721 
3286.000000	101.777209 
3285.000000	101.772011 
3284.000000	101.767273 
3283.000000	101.762840 
3282.000000	101.758414 
3281.000000	101.753843 
3280.000000	101.749134 
3279.000000	101.744231 
3278.000000	101.738971 
3277.000000	101.733284 
3276.000000	101.727377 
3275.000000	101.721687 
3274.000000	101.716584 
3273.000000	101.712147 
3272.000000	101.708122 
3271.000000	101.704066 
3270.000000	101.699683 
3269.000000	101.695038 
3268.000000	101.690462 
3267.000000	101.686150 
3266.000000	101.681881 
3265.000000	101.677250 
3264.000000	101.672193 
3263.000000	101.667167 
3262.000000	101.662692 
3261.000000	101.658785 
3260.000000	101.654911 
3259.000000	101.650547 
3258.000000	101.645733 
3257.000000	101.640923 
3256.000000	101.636359 
3255.000000	101.631793 
3254.000000	101.626906 
3253.000000	101.621786 
3252.000000	101.616823 
3251.000000	101.612213 
3250.000000	101.607772 
3249.000000	101.603277 
3248.000000	101.598759 
3247.000000	101.594353 
3246.000000	101.590017 
3245.000000	101.585569 
3244.000000	101.580929 
3243.000000	101.576110 
3242.000000	101.571023 
3241.000000	101.565559 
3240.000000	101.559868 
3239.000000	101.554375 
3238.000000	101.549387 
3237.000000	101.544775 
3236.000000	101.540105 
3235.000000	101.535078 
3234.000000	101.529787 
3233.000000	101.524542 
3232.000000	101.519564 
3231.000000	101.514870 
3230.000000	101.510380 
3229.000000	101.506012 
3228.000000	101.501653 
3227.000000	101.497125 
3226.000000	101.492251 
3225.000000	101.486988 
3224.000000	101.481510 
3223.000000	101.476133 
3222.000000	101.471093 
3221.000000	101.466372 
3220.000000	101.461691 
3219.000000	101.456700 
3218.000000	101.451300 
3217.000000	101.445710 
3216.000000	101.440293 
3215.000000	101.435243 
3214.000000	101.430477 
3213.000000	101.425752 
3212.000000	101.420878 
3211.000000	101.415814 
3210.000000	101.410572 
3209.000000	101.405152 
3208.000000	101.399614 
3207.000000	101.394130 
3206.000000	101.388874 
3205.000000	101.383840 
3204.000000	101.378837 
3203.000000	101.373728 
3202.000000	101.368591 
3201.000000	101.363612 
3200.000000	101.358876 
3199.000000	101.354306 
3198.000000	101.349752 
3197.000000	101.345104 
3196.000000	101.340320 
3195.000000	101.335448 
3194.000000	101.330624 
3193.000000	101.325978 
3192.000000	101.321494 
3191.000000	101.317009 
3190.000000	101.312367 
3189.000000	101.307547 
3188.000000	101.302649 
3187.000000	101.297809 
3186.000000	101.293087 
3185.000000	101.288433 
3184.000000	101.283738 
3183.000000	101.278925 
3182.000000	101.273997 
3181.000000	101.269052 
3180.000000	101.264230 
3179.000000	101.259601 
3178.000000	101.255099 
3177.000000	101.250640 
3176.000000	101.246263 
3175.000000	101.242006 
3174.000000	101.237723 
3173.000000	101.233173 
3172.000000	101.228300 
3171.000000	101.223344 
3170.000000	101.218592 
3169.000000	101.214086 
3168.000000	101.209690 
3167.000000	101.205382 
3166.000000	101.201297 
3165.000000	101.197443 
3164.000000	101.193540 
3163.000000	101.189282 
3162.000000	101.184663 
3161.000000	101.179999 
3160.000000	101.175606 
3159.000000	101.171499 
3158.000000	101.167345 
3157.000000	101.162721 
3156.000000	101.157513 
3155.000000	101.152224 
3154.000000	101.147708 
3153.000000	101.144430 
3152.000000	101.142052 
3151.000000	101.139631 
3150.000000	101.136503 
3149.000000	101.132770 
3148.000000	101.128918 
3147.000000	101.125148 
3146.000000	101.121219 
3145.000000	101.116921 
3144.000000	101.112391 
3143.000000	101.107817 
3142.000000	101.103044 
3141.000000	101.097878 
3140.000000	101.092782 
3139.000000	101.088808 
3138.000000	101.086589 
3137.000000	101.085642 
3136.000000	101.084683 
3135.000000	101.082714 
3134.000000	101.079606 
3133.000000	101.075825 
3132.000000	101.071912 
3131.000000	101.068153 
3130.000000	101.064624 
3129.000000	101.061474 
3128.000000	101.059090 
3127.000000	101.057786 
3126.000000	101.057172 
3125.000000	101.056112 
3124.000000	101.053665 
3123.000000	101.050000 
3122.000000	101.046164 
3121.000000	101.042916 
3120.000000	101.040011 
3119.000000	101.036754 
3118.000000	101.033009 
3117.000000	101.029449 
3116.000000	101.026886 
3115.000000	101.025545 
3114.000000	101.024913 
3113.000000	101.024053 
3112.000000	101.022180 
3111.000000	101.019225 
3110.000000	101.016099 
3109.000000	101.014207 
3108.000000	101.014300 
3107.000000	101.015582 
3106.000000	101.016086 
3105.000000	101.014430 
3104.000000	101.010891 
3103.000000	101.006814 
3102.000000	101.003211 
3101.000000	101.000260 
3100.000000	100.997934 
3099.000000	100.996230 
3098.000000	100.994700 
3097.000000	100.992564 
3096.000000	100.989534 
3095.000000	100.985969 
3094.000000	100.981948 
3093.000000	100.976967 
3092.000000	100.971245 
3091.000000	100.966577 
3090.000000	100.964738 
3089.000000	100.965424 
3088.000000	100.966455 
3087.000000	100.966155 
3086.000000	100.964760 
3085.000000	100.963303 
3084.000000	100.962129 
3083.000000	100.960840 
3082.000000	100.958871 
3081.000000	100.955704 
3080.000000	100.951257 
3079.000000	100.946668 
3078.000000	100.944065 
3077.000000	100.944846 
3076.000000	100.948306 
3075.000000	100.952096 
3074.000000	100.953864 
3073.000000	100.952718 
3072.000000	100.949992 
3071.000000	100.948631 
3070.000000	100.950629 
3069.000000	100.954590 
3068.000000	100.956637 
3067.000000	100.954263 
3066.000000	100.948754 
3065.000000	100.943939 
3064.000000	100.943187 
3063.000000	100.947190 
3062.000000	100.953012 
3061.000000	100.955256 
3060.000000	100.950391 
3059.000000	100.940889 
3058.000000	100.933428 
3057.000000	100.931678 
3056.000000	100.932667 
3055.000000	100.931781 
3054.000000	100.929424 
3053.000000	100.929836 
3052.000000	100.934439 
3051.000000	100.939551 
3050.000000	100.941123 
3049.000000	100.939364 
3048.000000	100.937716 
3047.000000	100.938976 
3046.000000	100.943544 
3045.000000	100.950055 
3044.000000	100.956297 
3043.000000	100.960356 
3042.000000	100.962155 
3041.000000	100.963557 
3040.000000	100.966132 
3039.000000	100.969296 
3038.000000	100.971626 
3037.000000	100.973815 
3036.000000	100.979035 
3035.000000	100.989582 
3034.000000	101.003898 
3033.000000	101.018336 
3032.000000	101.031855 
3031.000000	101.047270 
3030.000000	101.066852 
3029.000000	101.087721 
3028.000000	101.103297 
3027.000000	101.109671 
3026.000000	101.109495 
3025.000000	101.109073 
3024.000000	101.112622 
3023.000000	101.120171 
3022.000000	101.129948 
3021.000000	101.140995 
3020.000000	101.153402 
3019.000000	101.167426 
3018.000000	101.183144 
3017.000000	101.200335 
3016.000000	101.218138 
3015.000000	101.235380 
3014.000000	101.251955 
3013.000000	101.269595 
3012.000000	101.290389 
3011.000000	101.314364 
3010.000000	101.339131 
3009.000000	101.362338 
3008.000000	101.384068 
3007.000000	101.406261 
3006.000000	101.430093 
3005.000000	101.454793 
3004.000000	101.479002 
3003.000000	101.502177 
3002.000000	101.524336 
3001.000000	101.545736 
3000.000000	101.567857 
2999.000000	101.593508 
2998.000000	101.623814 
2997.000000	101.654930 
2996.000000	101.679962 
2995.000000	101.696282 
2994.000000	101.710948 
2993.000000	101.737243 
2992.000000	101.784123 
2991.000000	101.847835 
2990.000000	101.913636 
2989.000000	101.966894 
2988.000000	102.003618 
2987.000000	102.030606 
2986.000000	102.056353 
2985.000000	102.083335 
2984.000000	102.109535 
2983.000000	102.134673 
2982.000000	102.161607 
2981.000000	102.192102 
2980.000000	102.224174 
2979.000000	102.254256 
2978.000000	102.279515 
2977.000000	102.297384 
2976.000000	102.305870 
2975.000000	102.306450 
2974.000000	102.304033 
2973.000000	102.300417 
2972.000000	102.288542 
2971.000000	102.257008 
2970.000000	102.201227 
2969.000000	102.128339 
2968.000000	102.050987 
2967.000000	101.978117 
2966.000000	101.912361 
2965.000000	101.853123 
2964.000000	101.798916 
2963.000000	101.747797 
2962.000000	101.698711 
2961.000000	101.653228 
2960.000000	101.614407 
2959.000000	101.583213 
2958.000000	101.557214 
2957.000000	101.533641 
2956.000000	101.512842 
2955.000000	101.497396 
2954.000000	101.487838 
2953.000000	101.480511 
2952.000000	101.470506 
2951.000000	101.456279 
2950.000000	101.440290 
2949.000000	101.425126 
2948.000000	101.410461 
2947.000000	101.394899 
2946.000000	101.379743 
2945.000000	101.368756 
2944.000000	101.363510 
2943.000000	101.360210 
2942.000000	101.352378 
2941.000000	101.336661 
2940.000000	101.315528 
2939.000000	101.294653 
2938.000000	101.278119 
2937.000000	101.265549 
2936.000000	101.252833 
2935.000000	101.235608 
2934.000000	101.212800 
2933.000000	101.187120 
2932.000000	101.162065 
2931.000000	101.139020 
2930.000000	101.117855 
2929.000000	101.099503 
2928.000000	101.086086 
2927.000000	101.078376 
2926.000000	101.075356 
2925.000000	101.077426 
2924.000000	101.087896 
2923.000000	101.109024 
2922.000000	101.137518 
2921.000000	101.166399 
2920.000000	101.191575 
2919.000000	101.214470 
2918.000000	101.237893 
2917.000000	101.261919 
2916.000000	101.285233 
2915.000000	101.308525 
2914.000000	101.334101 
2913.000000	101.362684 
2912.000000	101.392366 
2911.000000	101.420546 
2910.000000	101.445334 
2909.000000	101.465367 
2908.000000	101.480390 
2907.000000	101.492999 
2906.000000	101.508502 
2905.000000	101.531616 
2904.000000	101.562981 
2903.000000	101.598750 
2902.000000	101.632095 
2901.000000	101.654905 
2900.000000	101.660595 
2899.000000	101.647782 
2898.000000	101.622676 
2897.000000	101.596806 
2896.000000	101.580810 
2895.000000	101.578686 
2894.000000	101.586303 
2893.000000	101.594476 
2892.000000	101.594915 
2891.000000	101.586045 
2890.000000	101.574147 
2889.000000	101.567616 
2888.000000	101.569112 
2887.000000	101.573784 
2886.000000	101.575175 
2885.000000	101.571349 
2884.000000	101.564449 
2883.000000	101.556251 
2882.000000	101.546452 
2881.000000	101.534677 
2880.000000	101.521640 
2879.000000	101.507881 
2878.000000	101.493196 
2877.000000	101.477790 
2876.000000	101.462009 
2875.000000	101.444103 
2874.000000	101.420452 
2873.000000	101.390176 
2872.000000	101.358480 
2871.000000	101.333163 
2870.000000	101.317368 
2869.000000	101.306581 
2868.000000	101.292670 
2867.000000	101.270237 
2866.000000	101.239720 
2865.000000	101.205580 
2864.000000	101.171715 
2863.000000	101.138360 
2862.000000	101.103623 
2861.000000	101.067473 
2860.000000	101.032342 
2859.000000	100.999391 
2858.000000	100.966593 
2857.000000	100.932180 
2856.000000	100.897950 
2855.000000	100.867300 
2854.000000	100.842455 
2853.000000	100.826450 
2852.000000	100.825048 
2851.000000	100.841261 
2850.000000	100.867845 
2849.000000	100.890222 
2848.000000	100.900044 
2847.000000	100.902672 
2846.000000	100.908756 
2845.000000	100.922054 
2844.000000	100.938247 
2843.000000	100.952474 
2842.000000	100.963499 
2841.000000	100.971405 
2840.000000	100.975618 
2839.000000	100.976367 
2838.000000	100.975478 
2837.000000	100.974279 
2836.000000	100.972015 
2835.000000	100.967197 
2834.000000	100.959782 
2833.000000	100.951561 
2832.000000	100.944993 
2831.000000	100.941812 
2830.000000	100.942047 
2829.000000	100.944042 
2828.000000	100.945605 
2827.000000	100.945351 
2826.000000	100.943238 
2825.000000	100.940398 
2824.000000	100.938393 
2823.000000	100.937607 
2822.000000	100.936153 
2821.000000	100.931475 
2820.000000	100.923435 
2819.000000	100.914675 
2818.000000	100.907631 
2817.000000	100.902784 
2816.000000	100.900447 
2815.000000	100.902017 
2814.000000	100.907578 
2813.000000	100.913801 
2812.000000	100.916580 
2811.000000	100.915179 
2810.000000	100.912072 
2809.000000	100.909391 
2808.000000	100.907251 
2807.000000	100.904993 
2806.000000	100.902307 
2805.000000	100.899204 
2804.000000	100.895849 
2803.000000	100.892585 
2802.000000	100.889762 
2801.000000	100.887532 
2800.000000	100.886111 
2799.000000	100.886006 
2798.000000	100.887454 
2797.000000	100.889694 
2796.000000	100.891272 
2795.000000	100.891182 
2794.000000	100.889428 
2793.000000	100.886664 
2792.000000	100.883828 
2791.000000	100.881848 
2790.000000	100.881157 
2789.000000	100.881368 
2788.000000	100.881600 
2787.000000	100.881356 
2786.000000	100.880881 
2785.000000	100.880597 
2784.000000	100.880477 
2783.000000	100.880099 
2782.000000	100.879171 
2781.000000	100.877846 
2780.000000	100.876574 
2779.000000	100.875710 
2778.000000	100.875247 
2777.000000	100.874903 
2776.000000	100.874427 
2775.000000	100.873800 
2774.000000	100.873138 
2773.000000	100.872492 
2772.000000	100.871823 
2771.000000	100.871084 
2770.000000	100.870247 
2769.000000	100.869322 
2768.000000	100.868448 
2767.000000	100.867865 
2766.000000	100.867674 
2765.000000	100.867675 
2764.000000	100.867517 
2763.000000	100.867065 
2762.000000	100.866470 
2761.000000	100.865934 
2760.000000	100.865473 
2759.000000	100.864956 
2758.000000	100.864314 
2757.000000	100.863629 
2756.000000	100.863068 
2755.000000	100.862735 
2754.000000	100.862555 
2753.000000	100.862296 
2752.000000	100.861821 
2751.000000	100.861291 
2750.000000	100.861039 
2749.000000	100.861187 
2748.000000	100.861470 
2747.000000	100.861499 
2746.000000	100.861158 
2745.000000	100.860604 
2744.000000	100.859994 
2743.000000	100.859340 
2742.000000	100.858589 
2741.000000	100.857682 
2740.000000	100.856557 
2739.000000	100.855272 
2738.000000	100.854096 
2737.000000	100.853343 
2736.000000	100.853104 
2735.000000	100.853215 
2734.000000	100.853437 
2733.000000	100.853570 
2732.000000	100.853496 
2731.000000	100.853229 
2730.000000	100.852902 
2729.000000	100.852612 
2728.000000	100.852307 
2727.000000	100.851935 
2726.000000	100.851619 
2725.000000	100.851544 
2724.000000	100.851726 
2723.000000	100.852008 
2722.000000	100.852224 
2721.000000	100.852181 
2720.000000	100.851548 
2719.000000	100.850067 
2718.000000	100.847966 
2717.000000	100.846113 
2716.000000	100.845479 
2715.000000	100.846386 
2714.000000	100.848216 
2713.000000	100.849805 
2712.000000	100.850368 
2711.000000	100.849937 
2710.000000	100.849022 
2709.000000	100.848013 
2708.000000	100.847040 
2707.000000	100.846270 
2706.000000	100.845914 
2705.000000	100.845855 
2704.000000	100.845574 
2703.000000	100.844666 
2702.000000	100.843284 
2701.000000	100.841962 
2700.000000	100.841044 
2699.000000	100.840380 
2698.000000	100.839577 
2697.000000	100.838485 
2696.000000	100.837449 
2695.000000	100.837017 
2694.000000	100.837267 
2693.000000	100.837424 
2692.000000	100.836384 
2691.000000	100.833849 
2690.000000	100.830945 
2689.000000	100.829375 
2688.000000	100.829762 
2687.000000	100.831107 
2686.000000	100.831877 
2685.000000	100.831618 
2684.000000	100.831079 
2683.000000	100.831014 
2682.000000	100.831453 
2681.000000	100.832159 
2680.000000	100.833086 
2679.000000	100.834048 
2678.000000	100.834458 
2677.000000	100.834001 
2676.000000	100.833242 
2675.000000	100.832952 
2674.000000	100.833103 
2673.000000	100.833253 
2672.000000	100.833699 
2671.000000	100.835220 
2670.000000	100.837606 
2669.000000	100.839351 
2668.000000	100.839402 
2667.000000	100.838377 
2666.000000	100.837743 
2665.000000	100.838096 
2664.000000	100.838923 
2663.000000	100.839782 
2662.000000	100.840842 
2661.000000	100.842220 
2660.000000	100.843574 
2659.000000	100.844675 
2658.000000	100.845733 
2657.000000	100.846831 
2656.000000	100.847494 
2655.000000	100.847317 
2654.000000	100.846685 
2653.000000	100.846467 
2652.000000	100.847076 
2651.000000	100.848161 
2650.000000	100.849091 
2649.000000	100.849530 
2648.000000	100.849619 
2647.000000	100.849752 
2646.000000	100.850193 
2645.000000	100.850888 
2644.000000	100.851581 
2643.000000	100.852052 
2642.000000	100.852230 
2641.000000	100.852173 
2640.000000	100.852060 
2639.000000	100.852164 
2638.000000	100.852664 
2637.000000	100.853397 
2636.000000	100.853922 
2635.000000	100.853967 
2634.000000	100.853774 
2633.000000	100.853869 
2632.000000	100.854537 
2631.000000	100.855648 
2630.000000	100.856875 
2629.000000	100.857958 
2628.000000	100.858792 
2627.000000	100.859394 
2626.000000	100.859879 
2625.000000	100.860386 
2624.000000	100.860946 
2623.000000	100.861428 
2622.000000	100.861693 
2621.000000	100.861798 
2620.000000	100.862037 
2619.000000	100.862704 
2618.000000	100.863799 
2617.000000	100.864910 
2616.000000	100.865542 
2615.000000	100.865570 
2614.000000	100.865292 
2613.000000	100.865131 
2612.000000	100.865260 
2611.000000	100.865599 
2610.000000	100.866082 
2609.000000	100.866794 
2608.000000	100.867795 
2607.000000	100.868840 
2606.000000	100.869440 
2605.000000	100.869328 
2604.000000	100.868764 
2603.000000	100.868335 
2602.000000	100.868365 
2601.000000	100.868755 
2600.000000	100.869394 
2599.000000	100.870412 
2598.000000	100.871824 
2597.000000	100.873222 
2596.000000	100.874192 
2595.000000	100.874894 
2594.000000	100.875861 
2593.000000	100.877254 
2592.000000	100.878591 
2591.000000	100.879322 
2590.000000	100.879453 
2589.000000	100.879529 
2588.000000	100.880145 
2587.000000	100.881479 
2586.000000	100.883141 
2585.000000	100.884375 
2584.000000	100.884659 
2583.000000	100.884173 
2582.000000	100.883649 
2581.000000	100.883610 
2580.000000	100.883978 
2579.000000	100.884595 
2578.000000	100.885767 
2577.000000	100.887893 
2576.000000	100.890754 
2575.000000	100.893522 
2574.000000	100.895557 
2573.000000	100.896864 
2572.000000	100.897894 
2571.000000	100.899112 
2570.000000	100.900683 
2569.000000	100.902389 
2568.000000	100.903762 
2567.000000	100.904435 
2566.000000	100.904511 
2565.000000	100.904615 
2564.000000	100.905451 
2563.000000	100.907163 
2562.000000	100.909127 
2561.000000	100.910516 
2560.000000	100.911163 
2559.000000	100.911659 
2558.000000	100.912596 
2557.000000	100.913891 
2556.000000	100.915068 
2555.000000	100.915970 
2554.000000	100.916855 
2553.000000	100.917889 
2552.000000	100.918939 
2551.000000	100.919923 
2550.000000	100.920967 
2549.000000	100.922046 
2548.000000	100.922799 
2547.000000	100.922999 
2546.000000	100.923000 
2545.000000	100.923400 
2544.000000	100.924301 
2543.000000	100.925152 
2542.000000	100.925392 
2541.000000	100.925131 
2540.000000	100.925048 
2539.000000	100.925675 
2538.000000	100.926919 
2537.000000	100.928272 
2536.000000	100.929300 
2535.000000	100.929829 
2534.000000	100.929794 
2533.000000	100.929203 
2532.000000	100.928363 
2531.000000	100.927886 
2530.000000	100.928196 
2529.000000	100.929219 
2528.000000	100.930630 
2527.000000	100.932209 
2526.000000	100.933763 
2525.000000	100.934954 
2524.000000	100.935622 
2523.000000	100.936175 
2522.000000	100.937270 
2521.000000	100.938985 
2520.000000	100.940530 
2519.000000	100.941045 
2518.000000	100.940433 
2517.000000	100.939360 
2516.000000	100.938677 
2515.000000	100.938747 
2514.000000	100.939380 
2513.000000	100.940168 
2512.000000	100.940860 
2511.000000	100.941458 
2510.000000	100.942001 
2509.000000	100.942443 
2508.000000	100.942813 
2507.000000	100.943294 
2506.000000	100.943963 
2505.000000	100.944578 
2504.000000	100.944858 
2503.000000	100.944904 
2502.000000	100.945122 
2501.000000	100.945702 
2500.000000	100.946471 
2499.000000	100.947256 
2498.000000	100.948104 
2497.000000	100.949003 
2496.000000	100.949701 
2495.000000	100.950011 
2494.000000	100.950119 
2493.000000	100.950367 
2492.000000	100.950823 
2491.000000	100.951350 
2490.000000	100.951991 
2489.000000	100.952928 
2488.000000	100.954133 
2487.000000	100.955336 
2486.000000	100.956361 
2485.000000	100.957273 
2484.000000	100.958077 
2483.000000	100.958550 
2482.000000	100.958541 
2481.000000	100.958379 
2480.000000	100.958715 
2479.000000	100.959890 
2478.000000	100.961598 
2477.000000	100.963235 
2476.000000	100.964448 
2475.000000	100.965235 
2474.000000	100.965711 
2473.000000	100.966054 
2472.000000	100.966628 
2471.000000	100.967857 
2470.000000	100.969801 
2469.000000	100.971989 
2468.000000	100.973767 
2467.000000	100.974781 
2466.000000	100.975127 
2465.000000	100.975270 
2464.000000	100.975862 
2463.000000	100.977299 
2462.000000	100.979172 
2461.000000	100.980375 
2460.000000	100.980128 
2459.000000	100.978796 
2458.000000	100.977478 
2457.000000	100.976856 
2456.000000	100.976772 
2455.000000	100.976896 
2454.000000	100.977362 
2453.000000	100.978459 
2452.000000	100.979882 
2451.000000	100.980709 
2450.000000	100.980447 
2449.000000	100.980034 
2448.000000	100.981331 
2447.000000	100.985243 
2446.000000	100.990487 
2445.000000	100.994574 
2444.000000	100.996495 
2443.000000	100.997599 
2442.000000	100.999601 
2441.000000	101.002159 
2440.000000	101.003406 
2439.000000	101.002537 
2438.000000	101.000676 
2437.000000	100.999301 
2436.000000	100.998647 
2435.000000	100.998114 
2434.000000	100.997480 
2433.000000	100.997166 
2432.000000	100.997656 
2431.000000	100.999116 
2430.000000	101.001348 
2429.000000	101.003790 
2428.000000	101.005744 
2427.000000	101.006876 
2426.000000	101.007442 
2425.000000	101.007949 
2424.000000	101.008673 
2423.000000	101.009433 
2422.000000	101.009679 
2421.000000	101.008882 
2420.000000	101.007237 
2419.000000	101.006053 
2418.000000	101.006956 
2417.000000	101.010431 
2416.000000	101.015437 
2415.000000	101.020281 
2414.000000	101.023662 
2413.000000	101.025050 
2412.000000	101.024734 
2411.000000	101.023963 
2410.000000	101.024133 
2409.000000	101.025330 
2408.000000	101.026190 
2407.000000	101.025736 
2406.000000	101.024867 
2405.000000	101.025218 
2404.000000	101.027026 
2403.000000	101.028930 
2402.000000	101.029871 
2401.000000	101.030216 
2400.000000	101.030883 
2399.000000	101.032040 
2398.000000	101.033135 
2397.000000	101.033786 
2396.000000	101.034057 
2395.000000	101.034001 
2394.000000	101.033571 
2393.000000	101.033040 
2392.000000	101.033023 
2391.000000	101.033837 
2390.000000	101.034990 
2389.000000	101.035678 
2388.000000	101.035641 
2387.000000	101.035156 
2386.000000	101.034354 
2385.000000	101.033173 
2384.000000	101.032061 
2383.000000	101.032145 
2382.000000	101.034235 
2381.000000	101.037915 
2380.000000	101.041980 
2379.000000	101.045574 
2378.000000	101.048617 
2377.000000	101.051120 
2376.000000	101.052751 
2375.000000	101.053313 
2374.000000	101.053340 
2373.000000	101.053876 
2372.000000	101.055412 
2371.000000	101.057373 
2370.000000	101.058824 
2369.000000	101.059459 
2368.000000	101.059605 
2367.000000	101.059660 
2366.000000	101.060002 
2365.000000	101.061247 
2364.000000	101.063875 
2363.000000	101.067228 
2362.000000	101.069586 
2361.000000	101.069926 
2360.000000	101.068731 
2359.000000	101.067148 
2358.000000	101.066061 
2357.000000	101.066095 
2356.000000	101.067937 
2355.000000	101.071706 
2354.000000	101.077066 
2353.000000	101.082046 
2352.000000	101.083914 
2351.000000	101.081698 
2350.000000	101.076908 
2349.000000	101.072542 
2348.000000	101.070982 
2347.000000	101.072971 
2346.000000	101.075907 
2345.000000	101.075211 
2344.000000	101.070428 
2343.000000	101.065727 
2342.000000	101.065223 
2341.000000	101.067574 
2340.000000	101.068929 
2339.000000	101.068627 
2338.000000	101.070414 
2337.000000	101.077183 
2336.000000	101.085607 
2335.000000	101.090729 
2334.000000	101.091576 
2333.000000	101.090969 
2332.000000	101.088270 
2331.000000	101.081553 
2330.000000	101.069404 
2329.000000	101.054824 
2328.000000	101.039463 
2327.000000	101.026462 
2326.000000	101.018184 
2325.000000	101.015784 
2324.000000	101.017569 
2323.000000	101.021661 
2322.000000	101.027807 
2321.000000	101.035393 
2320.000000	101.041831 
2319.000000	101.045828 
2318.000000	101.047721 
2317.000000	101.049964 
2316.000000	101.052577 
2315.000000	101.056226 
2314.000000	101.060212 
2313.000000	101.064700 
2312.000000	101.066770 
2311.000000	101.065171 
2310.000000	101.059835 
2309.000000	101.053864 
2308.000000	101.048914 
2307.000000	101.045997 
2306.000000	101.044410 
2305.000000	101.044354 
2304.000000	101.045928 
2303.000000	101.050181 
2302.000000	101.056490 
2301.000000	101.063206 
2300.000000	101.067703 
2299.000000	101.070142 
2298.000000	101.072068 
2297.000000	101.075934 
2296.000000	101.081516 
2295.000000	101.087070 
2294.000000	101.089937 
2293.000000	101.089502 
2292.000000	101.087183 
2291.000000	101.085783 
2290.000000	101.087076 
2289.000000	101.090832 
2288.000000	101.095688 
2287.000000	101.100427 
2286.000000	101.104499 
2285.000000	101.107407 
2284.000000	101.109031 
2283.000000	101.109842 
2282.000000	101.110928 
2281.000000	101.113171 
2280.000000	101.116781 
2279.000000	101.120926 
2278.000000	101.124091 
2277.000000	101.125300 
2276.000000	101.125204 
2275.000000	101.125514 
2274.000000	101.126771 
2273.000000	101.127592 
2272.000000	101.126465 
2271.000000	101.123858 
2270.000000	101.121804 
2269.000000	101.121813 
2268.000000	101.123781 
2267.000000	101.126773 
2266.000000	101.129868 
2265.000000	101.132322 
2264.000000	101.133612 
2263.000000	101.133812 
2262.000000	101.133653 
2261.000000	101.133875 
2260.000000	101.134683 
2259.000000	101.135867 
2258.000000	101.137390 
2257.000000	101.139513 
2256.000000	101.142337 
2255.000000	101.145341 
2254.000000	101.147623 
2253.000000	101.148816 
2252.000000	101.149487 
2251.000000	101.150441 
2250.000000	101.151629 
2249.000000	101.152320 
2248.000000	101.152242 
2247.000000	101.151943 
2246.000000	101.151960 
2245.000000	101.152242 
2244.000000	101.152692 
2243.000000	101.153616 
2242.000000	101.155179 
2241.000000	101.156926 
2240.000000	101.158190 
2239.000000	101.158867 
2238.000000	101.159379 
2237.000000	101.160118 
2236.000000	101.161077 
2235.000000	101.162079 
2234.000000	101.163036 
2233.000000	101.163968 
2232.000000	101.164902 
2231.000000	101.165840 
2230.000000	101.166780 
2229.000000	101.167700 
2228.000000	101.168577 
2227.000000	101.169421 
2226.000000	101.170280 
2225.000000	101.171196 
2224.000000	101.172174 
2223.000000	101.173189 
2222.000000	101.174197 
2221.000000	101.175169 
2220.000000	101.176112 
2219.000000	101.177045 
2218.000000	101.177977 
2217.000000	101.178899 
2216.000000	101.179811 
2215.000000	101.180728 
2214.000000	101.181673 
2213.000000	101.182642 
2212.000000	101.183615 
2211.000000	101.184574 
2210.000000	101.185521 
2209.000000	101.186466 
2208.000000	101.187433 
2207.000000	101.188454 
2206.000000	101.189534 
2205.000000	101.190620 
2204.000000	101.191625 
2203.000000	101.192506 
2202.000000	101.193310 
2201.000000	101.194134 
2200.000000	101.195079 
2199.000000	101.196220 
2198.000000	101.197554 
2197.000000	101.198937 
2196.000000	101.200171 
2195.000000	101.201201 
2194.000000	101.202154 
2193.000000	101.203212 
2192.000000	101.204459 
2191.000000	101.205834 
2190.000000	101.207165 
2189.000000	101.208303 
2188.000000	101.209295 
2187.000000	101.210404 
2186.000000	101.211856 
2185.000000	101.213569 
2184.000000	101.215131 
2183.000000	101.216238 
2182.000000	101.216939 
2181.000000	101.217521 
2180.000000	101.218183 
2179.000000	101.218958 
2178.000000	101.219834 
2177.000000	101.220774 
2176.000000	101.221709 
2175.000000	101.222619 
2174.000000	101.223536 
2173.000000	101.224428 
2172.000000	101.225184 
2171.000000	101.225810 
2170.000000	101.226516 
2169.000000	101.227510 
2168.000000	101.228759 
2167.000000	101.230034 
2166.000000	101.231164 
2165.000000	101.232150 
2164.000000	101.233060 
2163.000000	101.233901 
2162.000000	101.234605 
2161.000000	101.235060 
2160.000000	101.235233 
2159.000000	101.235339 
2158.000000	101.235755 
2157.000000	101.236663 
2156.000000	101.237857 
2155.000000	101.238971 
2154.000000	101.239849 
2153.000000	101.240509 
2152.000000	101.240873 
2151.000000	101.240852 
2150.000000	101.240688 
2149.000000	101.240913 
2148.000000	101.241792 
2147.000000	101.243015 
2146.000000	101.243974 
2145.000000	101.244320 
2144.000000	101.244177 
2143.000000	101.243999 
2142.000000	101.244193 
2141.000000	101.244853 
2140.000000	101.245761 
2139.000000	101.246609 
2138.000000	101.247301 
2137.000000	101.247989 
2136.000000	101.248932 
2135.000000	101.250320 
2134.000000	101.252050 
2133.000000	101.253657 
2132.000000	101.254708 
2131.000000	101.255307 
2130.000000	101.256008 
2129.000000	101.257136 
2128.000000	101.258428 
2127.000000	101.259459 
2126.000000	101.260056 
2125.000000	101.260140 
2124.000000	101.259516 
2123.000000	101.258257 
2122.000000	101.257038 
2121.000000	101.256665 
2120.000000	101.257334 
2119.000000	101.258592 
2118.000000	101.259782 
2117.000000	101.260546 
2116.000000	101.260886 
2115.000000	101.260984 
2114.000000	101.261043 
2113.000000	101.261203 
2112.000000	101.261497 
2111.000000	101.261871 
2110.000000	101.262263 
2109.000000	101.262660 
2108.000000	101.263095 
2107.000000	101.263586 
2106.000000	101.264097 
2105.000000	101.264531 
2104.000000	101.264785 
2103.000000	101.264819 
2102.000000	101.264713 
2101.000000	101.264652 
2100.000000	101.264787 
2099.000000	101.265102 
2098.000000	101.265445 
2097.000000	101.265710 
2096.000000	101.265941 
2095.000000	101.266219 
2094.000000	101.266531 
2093.000000	101.266786 
2092.000000	101.266942 
2091.000000	101.267043 
2090.000000	101.267145 
2089.000000	101.267271 
2088.000000	101.267422 
2087.000000	101.267604 
2086.000000	101.267813 
2085.000000	101.268026 
2084.000000	101.268220 
2083.000000	101.268385 
2082.000000	101.268531 
2081.000000	101.268692 
2080.000000	101.268904 
2079.000000	101.269169 
2078.000000	101.269453 
2077.000000	101.269697 
2076.000000	101.269824 
2075.000000	101.269826 
2074.000000	101.269837 
2073.000000	101.270009 
2072.000000	101.270300 
2071.000000	101.270481 
2070.000000	101.270426 
2069.000000	101.270309 
2068.000000	101.270372 
2067.000000	101.270596 
2066.000000	101.270775 
2065.000000	101.270832 
2064.000000	101.270888 
2063.000000	101.271077 
2062.000000	101.271428 
2061.000000	101.271851 
2060.000000	101.272097 
2059.000000	101.271797 
2058.000000	101.270748 
2057.000000	101.269258 
2056.000000	101.268058 
2055.000000	101.267695 
2054.000000	101.268112 
2053.000000	101.268857 
2052.000000	101.269669 
2051.000000	101.270659 
2050.000000	101.271959 
2049.000000	101.273426 
2048.000000	101.274742 
2047.000000	101.275514 
2046.000000	101.275184 
2045.000000	101.273253 
2044.000000	101.269995 
2043.000000	101.266797 
2042.000000	101.265202 
2041.000000	101.265510 
2040.000000	101.266577 
2039.000000	101.267097 
2038.000000	101.266873 
2037.000000	101.266722 
2036.000000	101.267544 
2035.000000	101.269582 
2034.000000	101.272208 
2033.000000	101.274360 
2032.000000	101.275470 
2031.000000	101.275931 
2030.000000	101.276380 
2029.000000	101.276647 
2028.000000	101.275882 
2027.000000	101.273792 
2026.000000	101.271201 
2025.000000	101.269230 
2024.000000	101.268203 
2023.000000	101.267622 
2022.000000	101.266980 
2021.000000	101.266265 
2020.000000	101.265722 
2019.000000	101.265380 
2018.000000	101.264976 
2017.000000	101.264394 
2016.000000	101.264087 
2015.000000	101.264773 
2014.000000	101.266633 
2013.000000	101.268932 
2012.000000	101.270572 
2011.000000	101.271016 
2010.000000	101.270486 
2009.000000	101.269479 
2008.000000	101.268341 
2007.000000	101.267236 
2006.000000	101.266220 
2005.000000	101.265320 
2004.000000	101.264727 
2003.000000	101.264840 
2002.000000	101.265866 
2001.000000	101.267378 
2000.000000	101.268497 
1999.000000	101.268597 
1998.000000	101.267670 
1997.000000	101.266243 
1996.000000	101.265120 
1995.000000	101.264895 
1994.000000	101.265555 
1993.000000	101.266483 
1992.000000	101.267051 
1991.000000	101.267298 
1990.000000	101.267705 
1989.000000	101.268455 
1988.000000	101.269282 
1987.000000	101.269966 
1986.000000	101.270622 
1985.000000	101.271401 
1984.000000	101.272172 
1983.000000	101.272727 
1982.000000	101.273117 
1981.000000	101.273538 
1980.000000	101.274002 
1979.000000	101.274295 
1978.000000	101.274267 
1977.000000	101.274081 
1976.000000	101.274129 
1975.000000	101.274711 
1974.000000	101.275740 
1973.000000	101.276793 
1972.000000	101.277568 
1971.000000	101.278238 
1970.000000	101.279196 
1969.000000	101.280373 
1968.000000	101.281094 
1967.000000	101.280873 
1966.000000	101.280210 
1965.000000	101.280224 
1964.000000	101.281459 
1963.000000	101.283462 
1962.000000	101.285539 
1961.000000	101.287623 
1960.000000	101.290031 
1959.000000	101.292547 
1958.000000	101.294343 
1957.000000	101.294945 
1956.000000	101.294749 
1955.000000	101.294313 
1954.000000	101.293656 
1953.000000	101.292705 
1952.000000	101.291810 
1951.000000	101.291452 
1950.000000	101.291696 
1949.000000	101.292230 
1948.000000	101.292928 
1947.000000	101.293992 
1946.000000	101.295395 
1945.000000	101.296577 
1944.000000	101.296943 
1943.000000	101.296551 
1942.000000	101.296090 
1941.000000	101.296138 
1940.000000	101.296789 
1939.000000	101.297912 
1938.000000	101.299300 
1937.000000	101.300617 
1936.000000	101.301391 
1935.000000	101.301234 
1934.000000	101.300244 
1933.000000	101.299185 
1932.000000	101.298826 
1931.000000	101.299083 
1930.000000	101.299102 
1929.000000	101.298302 
1928.000000	101.297300 
1927.000000	101.297168 
1926.000000	101.297965 
1925.000000	101.298517 
1924.000000	101.297925 
1923.000000	101.296896 
1922.000000	101.296810 
1921.000000	101.297841 
1920.000000	101.298889 
1919.000000	101.298659 
1918.000000	101.296501 
1917.000000	101.292777 
1916.000000	101.288856 
1915.000000	101.286437 
1914.000000	101.286147 
1913.000000	101.286943 
1912.000000	101.287217 
1911.000000	101.286604 
1910.000000	101.285920 
1909.000000	101.285440 
1908.000000	101.284405 
1907.000000	101.282179 
1906.000000	101.279008 
1905.000000	101.275435 
1904.000000	101.271944 
1903.000000	101.269455 
1902.000000	101.268759 
1901.000000	101.269269 
1900.000000	101.269453 
1899.000000	101.268579 
1898.000000	101.267202 
1897.000000	101.265859 
1896.000000	101.264339 
1895.000000	101.262663 
1894.000000	101.261499 
1893.000000	101.261082 
1892.000000	101.260808 
1891.000000	101.260089 
1890.000000	101.258978 
1889.000000	101.257784 
1888.000000	101.256531 
1887.000000	101.255432 
1886.000000	101.254965 
1885.000000	101.255215 
1884.000000	101.255968 
1883.000000	101.257252 
1882.000000	101.258747 
1881.000000	101.259232 
1880.000000	101.258016 
1879.000000	101.256240 
1878.000000	101.255615 
1877.000000	101.256277 
1876.000000	101.257043 
1875.000000	101.257579 
1874.000000	101.258687 
1873.000000	101.260152 
1872.000000	101.260312 
1871.000000	101.258365 
1870.000000	101.255877 
1869.000000	101.255312 
1868.000000	101.257115 
1867.000000	101.259577 
1866.000000	101.261564 
1865.000000	101.263310 
1864.000000	101.265224 
1863.000000	101.267501 
1862.000000	101.270111 
1861.000000	101.272328 
1860.000000	101.273115 
1859.000000	101.272566 
1858.000000	101.272162 
1857.000000	101.273061 
1856.000000	101.274961 
1855.000000	101.277021 
1854.000000	101.278885 
1853.000000	101.280231 
1852.000000	101.280670 
1851.000000	101.280270 
1850.000000	101.279692 
1849.000000	101.279680 
1848.000000	101.280395 
1847.000000	101.281523 
1846.000000	101.282506 
1845.000000	101.282840 
1844.000000	101.283448 
1843.000000	101.285845 
1842.000000	101.289454 
1841.000000	101.292575 
1840.000000	101.294519 
1839.000000	101.295500 
1838.000000	101.295978 
1837.000000	101.296177 
1836.000000	101.296314 
1835.000000	101.296926 
1834.000000	101.298063 
1833.000000	101.299253 
1832.000000	101.300653 
1831.000000	101.302416 
1830.000000	101.303800 
1829.000000	101.303235 
1828.000000	101.299389 
1827.000000	101.293526 
1826.000000	101.288319 
1825.000000	101.285343 
1824.000000	101.284671 
1823.000000	101.286135 
1822.000000	101.290199 
1821.000000	101.296401 
1820.000000	101.302362 
1819.000000	101.305835 
1818.000000	101.307063 
1817.000000	101.307232 
1816.000000	101.306333 
1815.000000	101.304351 
1814.000000	101.301927 
1813.000000	101.299219 
1812.000000	101.295854 
1811.000000	101.293699 
1810.000000	101.296772 
1809.000000	101.305068 
1808.000000	101.313480 
1807.000000	101.319392 
1806.000000	101.325569 
1805.000000	101.333668 
1804.000000	101.340360 
1803.000000	101.342693 
1802.000000	101.342329 
1801.000000	101.342554 
1800.000000	101.343389 
1799.000000	101.344017 
1798.000000	101.346821 
1797.000000	101.353031 
1796.000000	101.359173 
1795.000000	101.361956 
1794.000000	101.362509 
1793.000000	101.364325 
1792.000000	101.368780 
1791.000000	101.373720 
1790.000000	101.377465 
1789.000000	101.381149 
1788.000000	101.386672 
1787.000000	101.395442 
1786.000000	101.407651 
1785.000000	101.420623 
1784.000000	101.430637 
1783.000000	101.438111 
1782.000000	101.445268 
1781.000000	101.450875 
1780.000000	101.451243 
1779.000000	101.447195 
1778.000000	101.445476 
1777.000000	101.449956 
1776.000000	101.458353 
1775.000000	101.468538 
1774.000000	101.482717 
1773.000000	101.502504 
1772.000000	101.523661 
1771.000000	101.537621 
1770.000000	101.543702 
1769.000000	101.552163 
1768.000000	101.570549 
1767.000000	101.595494 
1766.000000	101.618846 
1765.000000	101.637747 
1764.000000	101.654189 
1763.000000	101.670092 
1762.000000	101.687117 
1761.000000	101.706573 
1760.000000	101.725295 
1759.000000	101.739999 
1758.000000	101.751907 
1757.000000	101.763910 
1756.000000	101.776446 
1755.000000	101.785861 
1754.000000	101.791211 
1753.000000	101.796522 
1752.000000	101.803996 
1751.000000	101.810797 
1750.000000	101.815447 
1749.000000	101.821204 
1748.000000	101.831452 
1747.000000	101.845975 
1746.000000	101.862861 
1745.000000	101.882528 
1744.000000	101.904471 
1743.000000	101.924095 
1742.000000	101.938404 
1741.000000	101.951453 
1740.000000	101.968731 
1739.000000	101.987265 
1738.000000	101.996374 
1737.000000	101.991433 
1736.000000	101.975200 
1735.000000	101.947104 
1734.000000	101.913926 
1733.000000	101.893072 
1732.000000	101.887663 
1731.000000	101.891763 
1730.000000	101.900901 
1729.000000	101.909360 
1728.000000	101.911210 
1727.000000	101.904195 
1726.000000	101.890156 
1725.000000	101.873087 
1724.000000	101.856639 
1723.000000	101.842823 
1722.000000	101.830672 
1721.000000	101.816082 
1720.000000	101.794709 
1719.000000	101.763579 
1718.000000	101.727287 
1717.000000	101.699031 
1716.000000	101.681736 
1715.000000	101.670401 
1714.000000	101.663161 
1713.000000	101.655294 
1712.000000	101.639741 
1711.000000	101.616745 
1710.000000	101.593180 
1709.000000	101.572984 
1708.000000	101.553041 
1707.000000	101.529704 
1706.000000	101.506516 
1705.000000	101.488441 
1704.000000	101.470945 
1703.000000	101.451054 
1702.000000	101.436077 
1701.000000	101.427501 
1700.000000	101.418272 
1699.000000	101.400136 
1698.000000	101.378233 
1697.000000	101.368246 
1696.000000	101.376169 
1695.000000	101.391048 
1694.000000	101.397557 
1693.000000	101.394193 
1692.000000	101.388034 
1691.000000	101.384436 
1690.000000	101.383349 
1689.000000	101.380441 
1688.000000	101.373091 
1687.000000	101.365485 
1686.000000	101.365178 
1685.000000	101.368951 
1684.000000	101.371109 
1683.000000	101.371360 
1682.000000	101.368213 
1681.000000	101.365757 
1680.000000	101.368753 
1679.000000	101.375478 
1678.000000	101.382917 
1677.000000	101.391277 
1676.000000	101.399489 
1675.000000	101.403620 
1674.000000	101.401632 
1673.000000	101.397571 
1672.000000	101.396283 
1671.000000	101.397308 
1670.000000	101.398470 
1669.000000	101.401551 
1668.000000	101.406858 
1667.000000	101.409669 
1666.000000	101.407587 
1665.000000	101.403776 
1664.000000	101.401615 
1663.000000	101.402101 
1662.000000	101.404641 
1661.000000	101.407761 
1660.000000	101.411680 
1659.000000	101.416434 
1658.000000	101.419031 
1657.000000	101.416739 
1656.000000	101.411936 
1655.000000	101.408330 
1654.000000	101.401256 
1653.000000	101.394786 
1652.000000	101.397219 
1651.000000	101.401528 
1650.000000	101.404126 
1649.000000	101.406261 
1648.000000	101.406796 
1647.000000	101.404752 
1646.000000	101.403221 
1645.000000	101.404569 
1644.000000	101.407397 
1643.000000	101.409450 
1642.000000	101.409490 
1641.000000	101.407436 
1640.000000	101.403516 
1639.000000	101.398231 
1638.000000	101.393356 
1637.000000	101.390275 
1636.000000	101.389088 
1635.000000	101.389704 
1634.000000	101.389313 
1633.000000	101.386494 
1632.000000	101.383004 
1631.000000	101.380988 
1630.000000	101.381020 
1629.000000	101.381953 
1628.000000	101.382224 
1627.000000	101.380552 
1626.000000	101.375943 
1625.000000	101.369015 
1624.000000	101.362671 
1623.000000	101.360713 
1622.000000	101.362458 
1621.000000	101.362230 
1620.000000	101.358033 
1619.000000	101.353507 
1618.000000	101.352313 
1617.000000	101.353471 
1616.000000	101.354371 
1615.000000	101.354008 
1614.000000	101.353323 
1613.000000	101.354132 
1612.000000	101.357352 
1611.000000	101.362078 
1610.000000	101.366175 
1609.000000	101.368664 
1608.000000	101.370901 
1607.000000	101.374097 
1606.000000	101.376689 
1605.000000	101.376999 
1604.000000	101.376568 
1603.000000	101.378114 
1602.000000	101.381684 
1601.000000	101.384631 
1600.000000	101.385218 
1599.000000	101.384193 
1598.000000	101.383085 
1597.000000	101.382852 
1596.000000	101.384080 
1595.000000	101.387221 
1594.000000	101.391672 
1593.000000	101.395506 
1592.000000	101.397283 
1591.000000	101.397476 
1590.000000	101.397525 
1589.000000	101.398206 
1588.000000	101.399447 
1587.000000	101.401000 
1586.000000	101.402485 
1585.000000	101.403367 
1584.000000	101.403814 
1583.000000	101.404673 
1582.000000	101.406399 
1581.000000	101.408585 
1580.000000	101.410610 
1579.000000	101.412280 
1578.000000	101.413664 
1577.000000	101.414716 
1576.000000	101.415548 
1575.000000	101.416319 
1574.000000	101.417015 
1573.000000	101.417758 
1572.000000	101.418604 
1571.000000	101.419463 
1570.000000	101.420276 
1569.000000	101.421043 
1568.000000	101.421767 
1567.000000	101.422455 
1566.000000	101.423115 
1565.000000	101.423747 
1564.000000	101.424342 
1563.000000	101.424891 
1562.000000	101.425394 
1561.000000	101.425852 
1560.000000	101.426260 
1559.000000	101.426623 
1558.000000	101.426963 
1557.000000	101.427277 
1556.000000	101.427555 
1555.000000	101.427800 
1554.000000	101.428023 
1553.000000	101.428234 
1552.000000	101.428443 
1551.000000	101.428656 
1550.000000	101.428856 
1549.000000	101.429015 
1548.000000	101.429116 
1547.000000	101.429175 
1546.000000	101.429251 
1545.000000	101.429429 
1544.000000	101.429793 
1543.000000	101.430318 
1542.000000	101.430780 
1541.000000	101.430791 
1540.000000	101.430223 
1539.000000	101.429750 
1538.000000	101.429684 
1537.000000	101.429807 
1536.000000	101.430006 
1535.000000	101.430245 
1534.000000	101.430421 
1533.000000	101.430861 
1532.000000	101.431671 
1531.000000	101.432236 
1530.000000	101.432322 
1529.000000	101.432103 
1528.000000	101.431999 
1527.000000	101.432777 
1526.000000	101.434877 
1525.000000	101.437588 
1524.000000	101.439336 
1523.000000	101.438768 
1522.000000	101.435953 
1521.000000	101.433933 
1520.000000	101.435172 
1519.000000	101.438694 
1518.000000	101.442708 
1517.000000	101.446409 
1516.000000	101.449350 
1515.000000	101.451020 
1514.000000	101.452077 
1513.000000	101.454370 
1512.000000	101.458312 
1511.000000	101.461975 
1510.000000	101.464031 
1509.000000	101.465602 
1508.000000	101.467740 
1507.000000	101.469631 
1506.000000	101.472301 
1505.000000	101.474777 
1504.000000	101.476317 
1503.000000	101.478253 
1502.000000	101.481924 
1501.000000	101.487711 
1500.000000	101.493983 
1499.000000	101.498501 
1498.000000	101.501351 
1497.000000	101.505366 
1496.000000	101.511075 
1495.000000	101.515579 
1494.000000	101.518048 
1493.000000	101.521248 
1492.000000	101.527778 
1491.000000	101.537386 
1490.000000	101.547920 
1489.000000	101.557151 
1488.000000	101.562549 
1487.000000	101.564634 
1486.000000	101.567768 
1485.000000	101.573661 
1484.000000	101.580056 
1483.000000	101.584260 
1482.000000	101.586092 
1481.000000	101.587911 
1480.000000	101.591598 
1479.000000	101.597405 
1478.000000	101.604470 
1477.000000	101.610241 
1476.000000	101.611205 
1475.000000	101.607545 
1474.000000	101.603586 
1473.000000	101.603095 
1472.000000	101.605728 
1471.000000	101.607918 
1470.000000	101.609349 
1469.000000	101.612424 
1468.000000	101.616612 
1467.000000	101.619124 
1466.000000	101.620286 
1465.000000	101.625651 
1464.000000	101.638781 
1463.000000	101.654589 
1462.000000	101.667603 
1461.000000	101.677823 
1460.000000	101.687413 
1459.000000	101.697472 
1458.000000	101.708360 
1457.000000	101.723116 
1456.000000	101.740801 
1455.000000	101.752679 
1454.000000	101.756934 
1453.000000	101.759869 
1452.000000	101.766614 
1451.000000	101.776128 
1450.000000	101.783724 
1449.000000	101.786673 
1448.000000	101.784592 
1447.000000	101.779359 
1446.000000	101.774775 
1445.000000	101.774801 
1444.000000	101.779589 
1443.000000	101.784382 
1442.000000	101.785069 
1441.000000	101.782397 
1440.000000	101.780065 
1439.000000	101.780328 
1438.000000	101.783195 
1437.000000	101.788231 
1436.000000	101.795688 
1435.000000	101.803563 
1434.000000	101.810758 
1433.000000	101.819592 
1432.000000	101.831068 
1431.000000	101.842433 
1430.000000	101.850483 
1429.000000	101.855219 
1428.000000	101.857964 
1427.000000	101.859780 
1426.000000	101.862059 
1425.000000	101.866590 
1424.000000	101.873788 
1423.000000	101.881052 
1422.000000	101.886359 
1421.000000	101.891270 
1420.000000	101.897048 
1419.000000	101.901199 
1418.000000	101.903219 
1417.000000	101.908244 
1416.000000	101.920344 
1415.000000	101.936864 
1414.000000	101.951511 
1413.000000	101.962032 
1412.000000	101.972000 
1411.000000	101.984395 
1410.000000	101.997735 
1409.000000	102.009309 
1408.000000	102.017137 
1407.000000	102.019807 
1406.000000	102.017437 
1405.000000	102.013510 
1404.000000	102.012433 
1403.000000	102.013500 
1402.000000	102.012891 
1401.000000	102.009036 
1400.000000	102.002857 
1399.000000	101.997222 
1398.000000	101.997652 
1397.000000	102.010779 
1396.000000	102.038465 
1395.000000	102.070973 
1394.000000	102.090800 
1393.000000	102.090788 
1392.000000	102.079689 
1391.000000	102.068517 
1390.000000	102.062632 
1389.000000	102.065090 
1388.000000	102.079967 
1387.000000	102.109076 
1386.000000	102.146605 
1385.000000	102.183397 
1384.000000	102.215337 
1383.000000	102.242827 
1382.000000	102.266588 
1381.000000	102.285714 
1380.000000	102.297822 
1379.000000	102.301143 
1378.000000	102.297098 
1377.000000	102.290375 
1376.000000	102.285380 
1375.000000	102.283024 
1374.000000	102.280569 
1373.000000	102.274163 
1372.000000	102.261406 
1371.000000	102.243046 
1370.000000	102.222948 
1369.000000	102.207199 
1368.000000	102.200629 
1367.000000	102.200722 
1366.000000	102.197746 
1365.000000	102.182520 
1364.000000	102.153825 
1363.000000	102.120927 
1362.000000	102.096569 
1361.000000	102.084229 
1360.000000	102.077688 
1359.000000	102.071771 
1358.000000	102.066569 
1357.000000	102.062978 
1356.000000	102.059073 
1355.000000	102.052467 
1354.000000	102.044008 
1353.000000	102.036321 
1352.000000	102.029128 
1351.000000	102.020010 
1350.000000	102.008086 
1349.000000	101.994429 
1348.000000	101.979995 
1347.000000	101.965362 
1346.000000	101.952739 
1345.000000	101.944818 
1344.000000	101.940142 
1343.000000	101.932166 
1342.000000	101.915406 
1341.000000	101.891954 
1340.000000	101.870637 
1339.000000	101.858219 
1338.000000	101.852500 
1337.000000	101.846467 
1336.000000	101.836921 
1335.000000	101.826553 
1334.000000	101.819712 
1333.000000	101.818057 
1332.000000	101.819597 
1331.000000	101.820668 
1330.000000	101.818651 
1329.000000	101.813680 
1328.000000	101.808321 
1327.000000	101.805595 
1326.000000	101.806295 
1325.000000	101.807791 
1324.000000	101.805806 
1323.000000	101.797735 
1322.000000	101.784852 
1321.000000	101.771451 
1320.000000	101.761557 
1319.000000	101.756597 
1318.000000	101.756006 
1317.000000	101.759110 
1316.000000	101.765050 
1315.000000	101.770914 
1314.000000	101.772461 
1313.000000	101.768305 
1312.000000	101.761990 
1311.000000	101.758084 
1310.000000	101.756906 
1309.000000	101.755059 
1308.000000	101.750760 
1307.000000	101.746773 
1306.000000	101.746944 
1305.000000	101.751184 
1304.000000	101.755445 
1303.000000	101.756063 
1302.000000	101.753224 
1301.000000	101.750052 
1300.000000	101.749003 
1299.000000	101.749574 
1298.000000	101.749434 
1297.000000	101.747378 
1296.000000	101.744650 
1295.000000	101.743282 
1294.000000	101.743784 
1293.000000	101.745075 
1292.000000	101.746189 
1291.000000	101.747145 
1290.000000	101.748078 
1289.000000	101.748479 
1288.000000	101.747836 
1287.000000	101.746543 
1286.000000	101.745720 
1285.000000	101.746591 
1284.000000	101.750301 
1283.000000	101.757461 
1282.000000	101.767090 
1281.000000	101.776356 
1280.000000	101.782203 
1279.000000	101.783748 
1278.000000	101.783017 
1277.000000	101.783428 
1276.000000	101.787529 
1275.000000	101.795568 
1274.000000	101.805254 
1273.000000	101.812998 
1272.000000	101.816519 
1271.000000	101.816950 
1270.000000	101.818070 
1269.000000	101.823412 
1268.000000	101.834563 
1267.000000	101.851056 
1266.000000	101.869960 
1265.000000	101.885849 
1264.000000	101.893632 
1263.000000	101.893046 
1262.000000	101.889242 
1261.000000	101.887554 
1260.000000	101.888839 
1259.000000	101.890845 
1258.000000	101.892858 
1257.000000	101.896993 
1256.000000	101.904878 
1255.000000	101.914866 
1254.000000	101.923438 
1253.000000	101.928613 
1252.000000	101.931130 
1251.000000	101.932660 
1250.000000	101.933644 
1249.000000	101.932919 
1248.000000	101.929130 
1247.000000	101.922662 
1246.000000	101.916771 
1245.000000	101.916852 
1244.000000	101.927349 
1243.000000	101.947726 
1242.000000	101.971169 
1241.000000	101.988969 
1240.000000	101.998069 
1239.000000	102.004541 
1238.000000	102.018504 
1237.000000	102.044717 
1236.000000	102.078698 
1235.000000	102.112600 
1234.000000	102.143624 
1233.000000	102.174397 
1232.000000	102.205085 
1231.000000	102.228409 
1230.000000	102.235425 
1229.000000	102.225127 
1228.000000	102.205289 
1227.000000	102.183230 
1226.000000	102.157715 
1225.000000	102.121722 
1224.000000	102.072986 
1223.000000	102.020949 
1222.000000	101.983062 
1221.000000	101.973435 
1220.000000	101.992602 
1219.000000	102.024808 
1218.000000	102.045382 
1217.000000	102.035025 
1216.000000	101.990392 
1215.000000	101.923473 
1214.000000	101.851700 
1213.000000	101.787482 
1212.000000	101.735192 
1211.000000	101.694011 
1210.000000	101.660600 
1209.000000	101.630746 
1208.000000	101.601653 
1207.000000	101.573206 
1206.000000	101.545955 
1205.000000	101.518169 
1204.000000	101.486001 
1203.000000	101.446290 
1202.000000	101.398555 
1201.000000	101.345173 
1200.000000	101.290594 
1199.000000	101.239103 
1198.000000	101.191504 
1197.000000	101.144716 
1196.000000	101.095969 
1195.000000	101.046335 
1194.000000	100.998869 
1193.000000	100.954938 
1192.000000	100.914312 
1191.000000	100.877100 
1190.000000	100.843072 
1189.000000	100.810486 
1188.000000	100.778196 
1187.000000	100.747622 
1186.000000	100.719781 
1185.000000	100.691844 
1184.000000	100.660366 
1183.000000	100.627481 
1182.000000	100.599823 
1181.000000	100.580278 
1180.000000	100.563763 
1179.000000	100.542169 
1178.000000	100.511225 
1177.000000	100.471847 
1176.000000	100.427455 
1175.000000	100.381818 
1174.000000	100.337660 
1173.000000	100.295548 
1172.000000	100.254975 
1171.000000	100.216670 
1170.000000	100.182226 
1169.000000	100.151491 
1168.000000	100.122214 
1167.000000	100.092696 
1166.000000	100.063820 
1165.000000	100.038891 
1164.000000	100.022844 
1163.000000	100.020936 
1162.000000	100.035688 
1161.000000	100.064069 
1160.000000	100.098263 
1159.000000	100.129416 
1158.000000	100.150725 
1157.000000	100.158451 
1156.000000	100.152372 
1155.000000	100.135888 
1154.000000	100.114299 
1153.000000	100.091801 
1152.000000	100.069824 
1151.000000	100.047265 
1150.000000	100.021451 
1149.000000	99.990266  
1148.000000	99.955173  
1147.000000	99.921296  
1146.000000	99.892499  
1145.000000	99.867269  
1144.000000	99.841722  
1143.000000	99.815631  
1142.000000	99.792516  
1141.000000	99.774101  
1140.000000	99.757584  
1139.000000	99.738719  
1138.000000	99.715341  
1137.000000	99.687802  
1136.000000	99.658205  
1135.000000	99.629417  
1134.000000	99.602628  
1133.000000	99.575786  
1132.000000	99.546379  
1131.000000	99.515083  
1130.000000	99.483910  
1129.000000	99.451411  
1128.000000	99.413523  
1127.000000	99.369949  
1126.000000	99.326325  
1125.000000	99.288739  
1124.000000	99.258571  
1123.000000	99.233233  
1122.000000	99.208973  
1121.000000	99.182506  
1120.000000	99.153450  
1119.000000	99.126719  
1118.000000	99.109079  
1117.000000	99.100802  
1116.000000	99.092868  
1115.000000	99.075111  
1114.000000	99.046639  
1113.000000	99.016716  
1112.000000	98.996608  
1111.000000	98.991883  
1110.000000	99.000133  
1109.000000	99.013726  
1108.000000	99.025092  
1107.000000	99.031409  
1106.000000	99.035465  
1105.000000	99.041655  
1104.000000	99.051882  
1103.000000	99.065784  
1102.000000	99.082771  
1101.000000	99.102562  
1100.000000	99.124608  
1099.000000	99.148771  
1098.000000	99.175474  
1097.000000	99.203076  
1096.000000	99.226755  
1095.000000	99.242010  
1094.000000	99.248637  
1093.000000	99.249426  
1092.000000	99.246437  
1091.000000	99.241041  
1090.000000	99.235685  
1089.000000	99.231493  
1088.000000	99.224913  
1087.000000	99.211590  
1086.000000	99.194169  
1085.000000	99.181480  
1084.000000	99.178536  
1083.000000	99.181646  
1082.000000	99.185073  
1081.000000	99.187654  
1080.000000	99.189703  
1079.000000	99.188073  
1078.000000	99.179301  
1077.000000	99.164989  
1076.000000	99.149404  
1075.000000	99.133345  
1074.000000	99.113904  
1073.000000	99.088310  
1072.000000	99.055173  
1071.000000	99.015718  
1070.000000	98.978400  
1069.000000	98.957610  
1068.000000	98.958973  
1067.000000	98.965847  
1066.000000	98.948910  
1065.000000	98.893550  
1064.000000	98.814428  
1063.000000	98.743437  
1062.000000	98.708280  
1061.000000	98.720751  
1060.000000	98.774634  
1059.000000	98.848297  
1058.000000	98.916308  
1057.000000	98.966694  
1056.000000	99.004986  
1055.000000	99.039299  
1054.000000	99.066880  
1053.000000	99.078378  
1052.000000	99.067504  
1051.000000	99.028989  
1050.000000	98.953986  
1049.000000	98.839109  
1048.000000	98.697332  
1047.000000	98.548789  
1046.000000	98.400885  
1045.000000	98.246764  
1044.000000	98.082826  
1043.000000	97.917444  
1042.000000	97.759889  
1041.000000	97.609583  
1040.000000	97.461698  
1039.000000	97.316743  
1038.000000	97.178544  
1037.000000	97.047682  
1036.000000	96.923010  
1035.000000	96.805907  
1034.000000	96.697694  
1033.000000	96.597078  
1032.000000	96.506755  
1031.000000	96.439234  
1030.000000	96.407044  
1029.000000	96.404815  
1028.000000	96.405637  
1027.000000	96.379703  
1026.000000	96.318432  
1025.000000	96.240091  
1024.000000	96.172620  
1023.000000	96.132009  
1022.000000	96.114929  
1021.000000	96.107801  
1020.000000	96.099405  
1019.000000	96.085114  
1018.000000	96.065255  
1017.000000	96.045005  
1016.000000	96.034030  
1015.000000	96.040346  
1014.000000	96.062381  
1013.000000	96.088772  
1012.000000	96.106246  
1011.000000	96.107331  
1010.000000	96.093469  
1009.000000	96.074132  
1008.000000	96.061561  
1007.000000	96.062340  
1006.000000	96.072833  
1005.000000	96.083958  
1004.000000	96.089608  
1003.000000	96.089265  
1002.000000	96.085141  
1001.000000	96.080109  
1000.000000	96.077325  
999.000000	 96.078971  
998.000000	 96.085582  
997.000000	 96.097813  
996.000000	 96.116892  
995.000000	 96.141400  
994.000000	 96.166016  
993.000000	 96.186035  
992.000000	 96.201374  
991.000000	 96.214444  
990.000000	 96.227026  
989.000000	 96.241315  
988.000000	 96.260557  
987.000000	 96.285833  
986.000000	 96.315386  
985.000000	 96.349694  
984.000000	 96.392690  
983.000000	 96.444805  
982.000000	 96.500476  
981.000000	 96.556392  
980.000000	 96.616017  
979.000000	 96.681152  
978.000000	 96.745440  
977.000000	 96.803106  
976.000000	 96.858993  
975.000000	 96.922055  
974.000000	 96.992682  
973.000000	 97.064091  
972.000000	 97.133018  
971.000000	 97.200882  
970.000000	 97.266888  
969.000000	 97.328700  
968.000000	 97.388917  
967.000000	 97.452870  
966.000000	 97.520377  
965.000000	 97.587144  
964.000000	 97.654067  
963.000000	 97.727243  
962.000000	 97.807645  
961.000000	 97.887915  
960.000000	 97.961442  
959.000000	 98.028833  
958.000000	 98.093542  
957.000000	 98.156021  
956.000000	 98.214330  
955.000000	 98.266739  
954.000000	 98.311963  
953.000000	 98.349882  
952.000000	 98.383358  
951.000000	 98.417103  
950.000000	 98.454018  
949.000000	 98.494127  
948.000000	 98.536059  
947.000000	 98.577215  
946.000000	 98.614384  
945.000000	 98.647328  
944.000000	 98.679573  
943.000000	 98.712000  
942.000000	 98.738694  
941.000000	 98.754577  
940.000000	 98.764744  
939.000000	 98.779564  
938.000000	 98.801130  
937.000000	 98.821822  
936.000000	 98.836887  
935.000000	 98.851051  
934.000000	 98.870463  
933.000000	 98.894508  
932.000000	 98.919050  
931.000000	 98.942708  
930.000000	 98.966208  
929.000000	 98.989437  
928.000000	 99.012587  
927.000000	 99.037097  
926.000000	 99.062466  
925.000000	 99.085108  
924.000000	 99.103447  
923.000000	 99.121440  
922.000000	 99.143505  
921.000000	 99.167810  
920.000000	 99.188405  
919.000000	 99.203819  
918.000000	 99.220375  
917.000000	 99.245706  
916.000000	 99.280720  
915.000000	 99.319325  
914.000000	 99.355536  
913.000000	 99.389811  
912.000000	 99.426839  
911.000000	 99.467443  
910.000000	 99.506097  
909.000000	 99.538724  
908.000000	 99.570638  
907.000000	 99.613123  
906.000000	 99.672627  
905.000000	 99.745780  
904.000000	 99.824211  
903.000000	 99.901780  
902.000000	 99.977708  
901.000000	 100.055187 
900.000000	 100.136905 
899.000000	 100.220569 
898.000000	 100.299727 
897.000000	 100.370679 
896.000000	 100.437286 
895.000000	 100.506636 
894.000000	 100.581007 
893.000000	 100.656360 
892.000000	 100.727984 
891.000000	 100.795309 
890.000000	 100.861872 
889.000000	 100.932688 
888.000000	 101.010818 
887.000000	 101.094038 
886.000000	 101.174944 
885.000000	 101.246167 
884.000000	 101.305899 
883.000000	 101.358120 
882.000000	 101.407994 
881.000000	 101.456490 
880.000000	 101.497120 
879.000000	 101.517673 
878.000000	 101.509640 
877.000000	 101.479911 
876.000000	 101.451198 
875.000000	 101.444798 
874.000000	 101.461223 
873.000000	 101.481759 
872.000000	 101.490205 
871.000000	 101.489924 
870.000000	 101.497951 
869.000000	 101.525121 
868.000000	 101.565551 
867.000000	 101.605019 
866.000000	 101.636317 
865.000000	 101.664267 
864.000000	 101.696554 
863.000000	 101.732936 
862.000000	 101.765743 
861.000000	 101.789302 
860.000000	 101.805182 
859.000000	 101.817977 
858.000000	 101.829529 
857.000000	 101.839294 
856.000000	 101.848165 
855.000000	 101.859576 
854.000000	 101.877554 
853.000000	 101.903907 
852.000000	 101.934614 
851.000000	 101.958545 
850.000000	 101.965354 
849.000000	 101.958988 
848.000000	 101.959220 
847.000000	 101.982857 
846.000000	 102.024150 
845.000000	 102.059812 
844.000000	 102.073261 
843.000000	 102.068032 
842.000000	 102.057768 
841.000000	 102.050411 
840.000000	 102.045028 
839.000000	 102.037189 
838.000000	 102.021474 
837.000000	 101.993121 
836.000000	 101.954249 
835.000000	 101.917183 
834.000000	 101.895073 
833.000000	 101.888040 
832.000000	 101.883022 
831.000000	 101.868449 
830.000000	 101.846110 
829.000000	 101.828196 
828.000000	 101.825774 
827.000000	 101.841076 
826.000000	 101.867241 
825.000000	 101.892108 
824.000000	 101.903720 
823.000000	 101.896793 
822.000000	 101.876793 
821.000000	 101.856240 
820.000000	 101.843797 
819.000000	 101.835619 
818.000000	 101.818865 
817.000000	 101.785650 
816.000000	 101.742293 
815.000000	 101.702132 
814.000000	 101.669962 
813.000000	 101.637493 
812.000000	 101.593285 
811.000000	 101.529958 
810.000000	 101.439712 
809.000000	 101.312027 
808.000000	 101.144418 
807.000000	 100.951735 
806.000000	 100.755601 
805.000000	 100.565174 
804.000000	 100.376185 
803.000000	 100.187870 
802.000000	 100.012001 
801.000000	 99.863893  
800.000000	 99.751831  
799.000000	 99.677244  
798.000000	 99.638785  
797.000000	 99.633435  
796.000000	 99.656998  
795.000000	 99.704320  
794.000000	 99.766693  
793.000000	 99.830962  
792.000000	 99.886603  
791.000000	 99.934035  
790.000000	 99.980266  
789.000000	 100.024032 
788.000000	 100.050271 
787.000000	 100.043393 
786.000000	 100.002885 
785.000000	 99.941544  
784.000000	 99.870921  
783.000000	 99.794118  
782.000000	 99.712753  
781.000000	 99.635901  
780.000000	 99.579410  
779.000000	 99.557214  
778.000000	 99.573392  
777.000000	 99.621042  
776.000000	 99.687412  
775.000000	 99.760856  
774.000000	 99.835569  
773.000000	 99.911950  
772.000000	 99.992481  
771.000000	 100.075825 
770.000000	 100.154716 
769.000000	 100.221109 
768.000000	 100.274143 
767.000000	 100.321586 
766.000000	 100.371694 
765.000000	 100.424260 
764.000000	 100.471550 
763.000000	 100.507310 
762.000000	 100.532080 
761.000000	 100.549598 
760.000000	 100.561735 
759.000000	 100.569366 
758.000000	 100.575698 
757.000000	 100.585593 
756.000000	 100.602032 
755.000000	 100.624326 
754.000000	 100.648715 
753.000000	 100.670735 
752.000000	 100.690202 
751.000000	 100.715239 
750.000000	 100.757160 
749.000000	 100.817674 
748.000000	 100.883608 
747.000000	 100.938364 
746.000000	 100.977312 
745.000000	 101.007916 
744.000000	 101.037262 
743.000000	 101.066371 
742.000000	 101.096399 
741.000000	 101.132566 
740.000000	 101.178964 
739.000000	 101.233975 
738.000000	 101.292610 
737.000000	 101.348769 
736.000000	 101.393964 
735.000000	 101.420516 
734.000000	 101.429452 
733.000000	 101.432154 
732.000000	 101.440997 
731.000000	 101.460529 
730.000000	 101.489582 
729.000000	 101.525759 
728.000000	 101.564973 
727.000000	 101.599520 
726.000000	 101.620952 
725.000000	 101.627976 
724.000000	 101.628709 
723.000000	 101.632966 
722.000000	 101.644325 
721.000000	 101.661300 
720.000000	 101.683491 
719.000000	 101.711135 
718.000000	 101.738779 
717.000000	 101.756128 
716.000000	 101.758043 
715.000000	 101.750983 
714.000000	 101.745752 
713.000000	 101.744776 
712.000000	 101.742282 
711.000000	 101.735466 
710.000000	 101.729305 
709.000000	 101.728813 
708.000000	 101.730221 
707.000000	 101.728540 
706.000000	 101.724959 
705.000000	 101.722500 
704.000000	 101.718443 
703.000000	 101.702316 
702.000000	 101.663269 
701.000000	 101.598434 
700.000000	 101.514472 
699.000000	 101.424318 
698.000000	 101.337388 
697.000000	 101.255018 
696.000000	 101.181484 
695.000000	 101.134942 
694.000000	 101.140770 
693.000000	 101.206100 
692.000000	 101.304956 
691.000000	 101.399763 
690.000000	 101.472792 
689.000000	 101.529280 
688.000000	 101.575799 
687.000000	 101.609564 
686.000000	 101.632173 
685.000000	 101.655148 
684.000000	 101.685252 
683.000000	 101.719242 
682.000000	 101.755534 
681.000000	 101.799255 
680.000000	 101.849045 
679.000000	 101.891658 
678.000000	 101.914610 
677.000000	 101.916673 
676.000000	 101.910309 
675.000000	 101.911366 
674.000000	 101.928811 
673.000000	 101.962647 
672.000000	 102.008460 
671.000000	 102.069399 
670.000000	 102.157077 
669.000000	 102.267147 
668.000000	 102.321506 
667.000000	 102.265083 
666.000000	 102.173111 
665.000000	 102.117670 
664.000000	 102.104266 
663.000000	 102.124402 
662.000000	 102.160298 
661.000000	 102.191350 
660.000000	 102.208860 
659.000000	 102.222127 
658.000000	 102.243939 
657.000000	 102.272887 
656.000000	 102.298373 
655.000000	 102.312477 
654.000000	 102.313034 
653.000000	 102.302483 
652.000000	 102.286129 
651.000000	 102.268643 
650.000000	 102.252242 

