PE IR                   SPECTRUM    ASCII       PEDS        1.60        
  -1
~SP.SP
22/12/06
15:33:27.00
23/01/09
15:09:18.00
Administrator

650.000000
4









FRONTIER FT-IR,CPU32 MAIN 00.09.9951 07-SEPTEMBER-2011 11:49:41
MIR TGS
MIR
OPTKBR
90694
0.200000

4.000000
STRONG
RATIO
SPECTRUM
MAGNITUDE
MIRACLE ATR
DOUBLE

COMBINED


0


#HDR
-1
-1
#GR
CM-1
%T
0.00002384185791015625
0.0
4000.000000
-1.000000
3351
8
92.825559
84.070542
#DATA
4000.000000	92.814882 
3999.000000	92.812583 
3998.000000	92.806367 
3997.000000	92.799244 
3996.000000	92.794223 
3995.000000	92.792269 
3994.000000	92.792608 
3993.000000	92.793635 
3992.000000	92.794263 
3991.000000	92.794574 
3990.000000	92.795371 
3989.000000	92.797290 
3988.000000	92.800214 
3987.000000	92.803279 
3986.000000	92.805364 
3985.000000	92.805734 
3984.000000	92.804291 
3983.000000	92.801548 
3982.000000	92.798463 
3981.000000	92.795970 
3980.000000	92.794605 
3979.000000	92.794363 
3978.000000	92.794656 
3977.000000	92.794537 
3976.000000	92.793298 
3975.000000	92.791027 
3974.000000	92.788674 
3973.000000	92.787328 
3972.000000	92.787331 
3971.000000	92.788141 
3970.000000	92.788850 
3969.000000	92.788909 
3968.000000	92.788388 
3967.000000	92.787678 
3966.000000	92.787069 
3965.000000	92.786551 
3964.000000	92.785923 
3963.000000	92.785052 
3962.000000	92.784053 
3961.000000	92.783272 
3960.000000	92.783068 
3959.000000	92.783584 
3958.000000	92.784623 
3957.000000	92.785707 
3956.000000	92.786271 
3955.000000	92.785984 
3954.000000	92.784927 
3953.000000	92.783430 
3952.000000	92.781848 
3951.000000	92.780447 
3950.000000	92.779372 
3949.000000	92.778609 
3948.000000	92.777983 
3947.000000	92.777308 
3946.000000	92.776585 
3945.000000	92.776073 
3944.000000	92.776105 
3943.000000	92.776701 
3942.000000	92.777351 
3941.000000	92.777351 
3940.000000	92.776360 
3939.000000	92.774581 
3938.000000	92.772661 
3937.000000	92.771264 
3936.000000	92.770733 
3935.000000	92.771119 
3934.000000	92.772288 
3933.000000	92.773784 
3932.000000	92.774754 
3931.000000	92.774469 
3930.000000	92.773027 
3929.000000	92.771397 
3928.000000	92.770535 
3927.000000	92.770514 
3926.000000	92.770535 
3925.000000	92.769712 
3924.000000	92.767890 
3923.000000	92.765650 
3922.000000	92.763739 
3921.000000	92.762570 
3920.000000	92.762047 
3919.000000	92.761760 
3918.000000	92.761493 
3917.000000	92.761575 
3916.000000	92.762486 
3915.000000	92.764048 
3914.000000	92.765296 
3913.000000	92.765200 
3912.000000	92.763374 
3911.000000	92.760272 
3910.000000	92.757015 
3909.000000	92.755096 
3908.000000	92.755832 
3907.000000	92.759564 
3906.000000	92.764892 
3905.000000	92.768800 
3904.000000	92.768611 
3903.000000	92.763940 
3902.000000	92.756438 
3901.000000	92.748099 
3900.000000	92.740143 
3899.000000	92.733372 
3898.000000	92.728673 
3897.000000	92.726616 
3896.000000	92.726933 
3895.000000	92.728966 
3894.000000	92.731898 
3893.000000	92.734617 
3892.000000	92.735930 
3891.000000	92.735501 
3890.000000	92.734160 
3889.000000	92.732866 
3888.000000	92.732076 
3887.000000	92.731892 
3886.000000	92.732282 
3885.000000	92.733128 
3884.000000	92.733940 
3883.000000	92.733817 
3882.000000	92.732242 
3881.000000	92.729681 
3880.000000	92.727439 
3879.000000	92.726723 
3878.000000	92.727475 
3877.000000	92.728469 
3876.000000	92.728547 
3875.000000	92.727599 
3874.000000	92.726575 
3873.000000	92.726419 
3872.000000	92.727060 
3871.000000	92.727689 
3870.000000	92.727824 
3869.000000	92.727665 
3868.000000	92.727339 
3867.000000	92.726701 
3866.000000	92.726113 
3865.000000	92.726344 
3864.000000	92.727485 
3863.000000	92.728552 
3862.000000	92.728561 
3861.000000	92.727643 
3860.000000	92.726909 
3859.000000	92.727548 
3858.000000	92.730145 
3857.000000	92.734333 
3856.000000	92.738599 
3855.000000	92.740564 
3854.000000	92.738710 
3853.000000	92.734410 
3852.000000	92.730841 
3851.000000	92.729078 
3850.000000	92.728489 
3849.000000	92.728395 
3848.000000	92.728063 
3847.000000	92.726623 
3846.000000	92.723781 
3845.000000	92.720417 
3844.000000	92.717925 
3843.000000	92.716970 
3842.000000	92.717228 
3841.000000	92.718106 
3840.000000	92.719069 
3839.000000	92.719338 
3838.000000	92.718074 
3837.000000	92.715705 
3836.000000	92.714433 
3835.000000	92.716319 
3834.000000	92.721201 
3833.000000	92.726279 
3832.000000	92.728111 
3831.000000	92.725523 
3830.000000	92.720504 
3829.000000	92.716600 
3828.000000	92.716392 
3827.000000	92.719935 
3826.000000	92.725051 
3825.000000	92.729357 
3824.000000	92.732165 
3823.000000	92.734923 
3822.000000	92.739528 
3821.000000	92.745580 
3820.000000	92.750062 
3819.000000	92.749889 
3818.000000	92.744639 
3817.000000	92.736755 
3816.000000	92.729469 
3815.000000	92.724056 
3814.000000	92.718676 
3813.000000	92.710998 
3812.000000	92.701458 
3811.000000	92.692598 
3810.000000	92.686129 
3809.000000	92.681852 
3808.000000	92.678713 
3807.000000	92.676551 
3806.000000	92.676530 
3805.000000	92.679358 
3804.000000	92.684386 
3803.000000	92.690113 
3802.000000	92.694585 
3801.000000	92.697642 
3800.000000	92.701441 
3799.000000	92.707280 
3798.000000	92.714356 
3797.000000	92.720076 
3796.000000	92.721217 
3795.000000	92.716324 
3794.000000	92.707099 
3793.000000	92.697350 
3792.000000	92.690606 
3791.000000	92.687636 
3790.000000	92.685895 
3789.000000	92.682032 
3788.000000	92.675176 
3787.000000	92.667900 
3786.000000	92.663913 
3785.000000	92.664610 
3784.000000	92.667862 
3783.000000	92.670236 
3782.000000	92.670186 
3781.000000	92.668981 
3780.000000	92.668771 
3779.000000	92.670108 
3778.000000	92.671750 
3777.000000	92.672723 
3776.000000	92.673527 
3775.000000	92.675344 
3774.000000	92.678592 
3773.000000	92.682351 
3772.000000	92.685125 
3771.000000	92.686167 
3770.000000	92.685946 
3769.000000	92.685207 
3768.000000	92.683884 
3767.000000	92.681643 
3766.000000	92.679068 
3765.000000	92.677617 
3764.000000	92.678234 
3763.000000	92.680185 
3762.000000	92.681608 
3761.000000	92.681118 
3760.000000	92.678870 
3759.000000	92.676494 
3758.000000	92.675764 
3757.000000	92.677065 
3756.000000	92.679020 
3755.000000	92.679704 
3754.000000	92.678666 
3753.000000	92.677645 
3752.000000	92.678774 
3751.000000	92.681377 
3750.000000	92.682135 
3749.000000	92.679422 
3748.000000	92.674573 
3747.000000	92.669514 
3746.000000	92.665362 
3745.000000	92.662251 
3744.000000	92.660186 
3743.000000	92.658580 
3742.000000	92.655512 
3741.000000	92.651404 
3740.000000	92.649937 
3739.000000	92.653186 
3738.000000	92.658140 
3737.000000	92.659166 
3736.000000	92.654556 
3735.000000	92.648647 
3734.000000	92.646425 
3733.000000	92.647857 
3732.000000	92.649472 
3731.000000	92.648461 
3730.000000	92.643435 
3729.000000	92.633755 
3728.000000	92.620100 
3727.000000	92.605892 
3726.000000	92.596663 
3725.000000	92.595571 
3724.000000	92.599637 
3723.000000	92.601839 
3722.000000	92.597637 
3721.000000	92.588916 
3720.000000	92.581399 
3719.000000	92.578607 
3718.000000	92.578575 
3717.000000	92.576586 
3716.000000	92.570044 
3715.000000	92.560373 
3714.000000	92.551653 
3713.000000	92.547024 
3712.000000	92.545508 
3711.000000	92.542700 
3710.000000	92.534917 
3709.000000	92.521790 
3708.000000	92.505066 
3707.000000	92.486857 
3706.000000	92.468987 
3705.000000	92.452655 
3704.000000	92.438284 
3703.000000	92.425697 
3702.000000	92.414531 
3701.000000	92.404469 
3700.000000	92.395080 
3699.000000	92.385679 
3698.000000	92.375748 
3697.000000	92.365224 
3696.000000	92.353961 
3695.000000	92.341133 
3694.000000	92.326292 
3693.000000	92.311093 
3692.000000	92.298658 
3691.000000	92.290528 
3690.000000	92.284421 
3689.000000	92.276482 
3688.000000	92.265930 
3687.000000	92.255021 
3686.000000	92.245540 
3685.000000	92.238356 
3684.000000	92.234678 
3683.000000	92.235299 
3682.000000	92.238595 
3681.000000	92.240248 
3680.000000	92.235907 
3679.000000	92.224057 
3678.000000	92.207044 
3677.000000	92.190465 
3676.000000	92.181036 
3675.000000	92.181629 
3674.000000	92.187839 
3673.000000	92.191863 
3672.000000	92.188610 
3671.000000	92.177252 
3670.000000	92.161112 
3669.000000	92.146497 
3668.000000	92.137215 
3667.000000	92.131673 
3666.000000	92.126053 
3665.000000	92.118311 
3664.000000	92.109937 
3663.000000	92.104442 
3662.000000	92.103600 
3661.000000	92.105336 
3660.000000	92.105739 
3659.000000	92.103074 
3658.000000	92.100124 
3657.000000	92.102007 
3656.000000	92.111094 
3655.000000	92.124198 
3654.000000	92.135616 
3653.000000	92.142662 
3652.000000	92.147116 
3651.000000	92.152199 
3650.000000	92.159249 
3649.000000	92.167050 
3648.000000	92.173317 
3647.000000	92.176290 
3646.000000	92.175604 
3645.000000	92.172916 
3644.000000	92.171509 
3643.000000	92.174044 
3642.000000	92.179757 
3641.000000	92.184503 
3640.000000	92.184411 
3639.000000	92.179915 
3638.000000	92.175905 
3637.000000	92.177555 
3636.000000	92.186165 
3635.000000	92.198464 
3634.000000	92.209620 
3633.000000	92.216866 
3632.000000	92.220729 
3631.000000	92.223788 
3630.000000	92.228214 
3629.000000	92.234195 
3628.000000	92.240672 
3627.000000	92.246086 
3626.000000	92.248312 
3625.000000	92.246341 
3624.000000	92.241194 
3623.000000	92.235356 
3622.000000	92.231820 
3621.000000	92.232632 
3620.000000	92.237605 
3619.000000	92.244512 
3618.000000	92.251181 
3617.000000	92.256936 
3616.000000	92.261935 
3615.000000	92.266251 
3614.000000	92.269954 
3613.000000	92.273391 
3612.000000	92.276961 
3611.000000	92.280779 
3610.000000	92.284911 
3609.000000	92.289678 
3608.000000	92.295153 
3607.000000	92.300586 
3606.000000	92.305049 
3605.000000	92.308836 
3604.000000	92.313527 
3603.000000	92.320270 
3602.000000	92.328285 
3601.000000	92.335377 
3600.000000	92.340205 
3599.000000	92.343421 
3598.000000	92.346563 
3597.000000	92.350322 
3596.000000	92.354145 
3595.000000	92.356998 
3594.000000	92.358449 
3593.000000	92.359142 
3592.000000	92.360332 
3591.000000	92.363318 
3590.000000	92.368602 
3589.000000	92.375089 
3588.000000	92.380387 
3587.000000	92.383046 
3586.000000	92.383723 
3585.000000	92.383340 
3584.000000	92.381536 
3583.000000	92.377849 
3582.000000	92.373351 
3581.000000	92.370460 
3580.000000	92.371118 
3579.000000	92.375393 
3578.000000	92.381858 
3577.000000	92.388985 
3576.000000	92.396002 
3575.000000	92.402507 
3574.000000	92.407764 
3573.000000	92.410843 
3572.000000	92.411387 
3571.000000	92.410180 
3570.000000	92.408839 
3569.000000	92.408626 
3568.000000	92.409334 
3567.000000	92.409798 
3566.000000	92.409854 
3565.000000	92.410898 
3564.000000	92.414128 
3563.000000	92.419171 
3562.000000	92.424342 
3561.000000	92.427894 
3560.000000	92.429189 
3559.000000	92.428877 
3558.000000	92.428259 
3557.000000	92.428466 
3556.000000	92.429960 
3555.000000	92.432566 
3554.000000	92.435693 
3553.000000	92.438579 
3552.000000	92.440547 
3551.000000	92.441238 
3550.000000	92.440726 
3549.000000	92.439511 
3548.000000	92.438366 
3547.000000	92.438068 
3546.000000	92.439172 
3545.000000	92.441835 
3544.000000	92.445634 
3543.000000	92.449644 
3542.000000	92.453006 
3541.000000	92.455444 
3540.000000	92.457211 
3539.000000	92.458706 
3538.000000	92.460288 
3537.000000	92.462375 
3536.000000	92.465334 
3535.000000	92.469050 
3534.000000	92.472796 
3533.000000	92.475733 
3532.000000	92.477605 
3531.000000	92.478833 
3530.000000	92.480073 
3529.000000	92.481708 
3528.000000	92.483610 
3527.000000	92.485292 
3526.000000	92.486380 
3525.000000	92.487128 
3524.000000	92.488338 
3523.000000	92.490575 
3522.000000	92.493599 
3521.000000	92.496777 
3520.000000	92.499973 
3519.000000	92.503613 
3518.000000	92.507835 
3517.000000	92.511938 
3516.000000	92.514914 
3515.000000	92.516329 
3514.000000	92.516578 
3513.000000	92.516566 
3512.000000	92.517247 
3511.000000	92.519327 
3510.000000	92.523060 
3509.000000	92.528090 
3508.000000	92.533497 
3507.000000	92.538269 
3506.000000	92.541886 
3505.000000	92.544473 
3504.000000	92.546593 
3503.000000	92.548866 
3502.000000	92.551681 
3501.000000	92.555110 
3500.000000	92.558818 
3499.000000	92.562045 
3498.000000	92.564012 
3497.000000	92.564577 
3496.000000	92.564530 
3495.000000	92.565100 
3494.000000	92.566932 
3493.000000	92.569742 
3492.000000	92.572783 
3491.000000	92.575553 
3490.000000	92.578056 
3489.000000	92.580510 
3488.000000	92.583065 
3487.000000	92.585794 
3486.000000	92.588766 
3485.000000	92.591960 
3484.000000	92.595106 
3483.000000	92.597758 
3482.000000	92.599673 
3481.000000	92.601131 
3480.000000	92.602782 
3479.000000	92.605023 
3478.000000	92.607590 
3477.000000	92.609864 
3476.000000	92.611575 
3475.000000	92.613102 
3474.000000	92.615025 
3473.000000	92.617490 
3472.000000	92.620177 
3471.000000	92.622752 
3470.000000	92.625135 
3469.000000	92.627327 
3468.000000	92.629307 
3467.000000	92.631237 
3466.000000	92.633521 
3465.000000	92.636436 
3464.000000	92.639759 
3463.000000	92.642867 
3462.000000	92.645344 
3461.000000	92.647293 
3460.000000	92.649146 
3459.000000	92.651242 
3458.000000	92.653636 
3457.000000	92.656279 
3456.000000	92.659170 
3455.000000	92.662260 
3454.000000	92.665271 
3453.000000	92.667900 
3452.000000	92.670265 
3451.000000	92.672939 
3450.000000	92.676305 
3449.000000	92.680067 
3448.000000	92.683526 
3447.000000	92.686381 
3446.000000	92.689041 
3445.000000	92.692049 
3444.000000	92.695401 
3443.000000	92.698686 
3442.000000	92.701741 
3441.000000	92.704829 
3440.000000	92.708101 
3439.000000	92.711233 
3438.000000	92.713813 
3437.000000	92.715918 
3436.000000	92.718078 
3435.000000	92.720681 
3434.000000	92.723600 
3433.000000	92.726407 
3432.000000	92.728837 
3431.000000	92.730949 
3430.000000	92.732963 
3429.000000	92.735069 
3428.000000	92.737402 
3427.000000	92.740120 
3426.000000	92.743347 
3425.000000	92.746958 
3424.000000	92.750464 
3423.000000	92.753269 
3422.000000	92.755133 
3421.000000	92.756411 
3420.000000	92.757841 
3419.000000	92.760060 
3418.000000	92.763195 
3417.000000	92.766703 
3416.000000	92.769589 
3415.000000	92.771190 
3414.000000	92.771740 
3413.000000	92.772195 
3412.000000	92.773293 
3411.000000	92.774897 
3410.000000	92.776471 
3409.000000	92.777910 
3408.000000	92.779614 
3407.000000	92.781821 
3406.000000	92.784197 
3405.000000	92.786226 
3404.000000	92.787675 
3403.000000	92.788501 
3402.000000	92.788648 
3401.000000	92.788312 
3400.000000	92.788183 
3399.000000	92.788999 
3398.000000	92.790818 
3397.000000	92.792932 
3396.000000	92.794554 
3395.000000	92.795506 
3394.000000	92.796174 
3393.000000	92.796990 
3392.000000	92.798035 
3391.000000	92.799007 
3390.000000	92.799533 
3389.000000	92.799591 
3388.000000	92.799736 
3387.000000	92.800755 
3386.000000	92.802975 
3385.000000	92.805832 
3384.000000	92.808218 
3383.000000	92.809457 
3382.000000	92.809827 
3381.000000	92.810128 
3380.000000	92.810731 
3379.000000	92.811194 
3378.000000	92.810877 
3377.000000	92.809740 
3376.000000	92.808478 
3375.000000	92.807941 
3374.000000	92.808517 
3373.000000	92.809995 
3372.000000	92.811701 
3371.000000	92.812860 
3370.000000	92.813100 
3369.000000	92.812675 
3368.000000	92.812171 
3367.000000	92.811835 
3366.000000	92.811391 
3365.000000	92.810569 
3364.000000	92.809638 
3363.000000	92.809204 
3362.000000	92.809507 
3361.000000	92.810086 
3360.000000	92.810183 
3359.000000	92.809504 
3358.000000	92.808514 
3357.000000	92.807954 
3356.000000	92.808036 
3355.000000	92.808198 
3354.000000	92.807671 
3353.000000	92.806224 
3352.000000	92.804313 
3351.000000	92.802679 
3350.000000	92.801830 
3349.000000	92.801859 
3348.000000	92.802444 
3347.000000	92.802936 
3346.000000	92.802763 
3345.000000	92.801898 
3344.000000	92.800852 
3343.000000	92.800075 
3342.000000	92.799452 
3341.000000	92.798566 
3340.000000	92.797242 
3339.000000	92.795618 
3338.000000	92.793835 
3337.000000	92.791971 
3336.000000	92.790259 
3335.000000	92.789073 
3334.000000	92.788504 
3333.000000	92.788105 
3332.000000	92.787244 
3331.000000	92.785741 
3330.000000	92.783937 
3329.000000	92.782185 
3328.000000	92.780462 
3327.000000	92.778608 
3326.000000	92.776726 
3325.000000	92.775102 
3324.000000	92.773810 
3323.000000	92.772498 
3322.000000	92.770689 
3321.000000	92.768250 
3320.000000	92.765463 
3319.000000	92.762683 
3318.000000	92.760016 
3317.000000	92.757450 
3316.000000	92.755087 
3315.000000	92.753053 
3314.000000	92.751212 
3313.000000	92.749147 
3312.000000	92.746590 
3311.000000	92.743724 
3310.000000	92.740993 
3309.000000	92.738600 
3308.000000	92.736325 
3307.000000	92.733785 
3306.000000	92.730796 
3305.000000	92.727485 
3304.000000	92.724206 
3303.000000	92.721333 
3302.000000	92.719011 
3301.000000	92.717027 
3300.000000	92.714933 
3299.000000	92.712399 
3298.000000	92.709402 
3297.000000	92.706056 
3296.000000	92.702446 
3295.000000	92.698673 
3294.000000	92.694948 
3293.000000	92.691483 
3292.000000	92.688343 
3291.000000	92.685471 
3290.000000	92.682748 
3289.000000	92.679965 
3288.000000	92.676854 
3287.000000	92.673291 
3286.000000	92.669496 
3285.000000	92.665957 
3284.000000	92.662982 
3283.000000	92.660452 
3282.000000	92.657968 
3281.000000	92.655262 
3280.000000	92.652327 
3279.000000	92.649180 
3278.000000	92.645729 
3277.000000	92.641958 
3276.000000	92.638175 
3275.000000	92.634842 
3274.000000	92.632141 
3273.000000	92.629809 
3272.000000	92.627382 
3271.000000	92.624623 
3270.000000	92.621653 
3269.000000	92.618774 
3268.000000	92.616202 
3267.000000	92.613891 
3266.000000	92.611553 
3265.000000	92.608904 
3264.000000	92.605936 
3263.000000	92.602951 
3262.000000	92.600259 
3261.000000	92.597849 
3260.000000	92.595386 
3259.000000	92.592613 
3258.000000	92.589680 
3257.000000	92.586964 
3256.000000	92.584558 
3255.000000	92.582127 
3254.000000	92.579314 
3253.000000	92.576190 
3252.000000	92.573218 
3251.000000	92.570712 
3250.000000	92.568490 
3249.000000	92.566092 
3248.000000	92.563308 
3247.000000	92.560318 
3246.000000	92.557394 
3245.000000	92.554599 
3244.000000	92.551812 
3243.000000	92.548874 
3242.000000	92.545621 
3241.000000	92.541957 
3240.000000	92.538044 
3239.000000	92.534350 
3238.000000	92.531309 
3237.000000	92.528916 
3236.000000	92.526687 
3235.000000	92.524077 
3234.000000	92.520923 
3233.000000	92.517466 
3232.000000	92.514078 
3231.000000	92.510980 
3230.000000	92.508170 
3229.000000	92.505538 
3228.000000	92.502980 
3227.000000	92.500432 
3226.000000	92.497819 
3225.000000	92.495059 
3224.000000	92.492211 
3223.000000	92.489590 
3222.000000	92.487614 
3221.000000	92.486382 
3220.000000	92.485283 
3219.000000	92.483210 
3218.000000	92.479473 
3217.000000	92.474453 
3216.000000	92.469489 
3215.000000	92.465754 
3214.000000	92.463327 
3213.000000	92.461360 
3212.000000	92.458952 
3211.000000	92.455804 
3210.000000	92.452076 
3209.000000	92.448042 
3208.000000	92.444076 
3207.000000	92.440612 
3206.000000	92.437767 
3205.000000	92.435057 
3204.000000	92.431904 
3203.000000	92.428430 
3202.000000	92.425406 
3201.000000	92.423390 
3200.000000	92.422221 
3199.000000	92.421335 
3198.000000	92.420342 
3197.000000	92.419113 
3196.000000	92.417525 
3195.000000	92.415474 
3194.000000	92.413114 
3193.000000	92.410805 
3192.000000	92.408670 
3191.000000	92.406354 
3190.000000	92.403424 
3189.000000	92.399925 
3188.000000	92.396442 
3187.000000	92.393602 
3186.000000	92.391538 
3185.000000	92.389836 
3184.000000	92.387857 
3183.000000	92.385223 
3182.000000	92.382059 
3181.000000	92.378854 
3180.000000	92.376046 
3179.000000	92.373669 
3178.000000	92.371470 
3177.000000	92.369282 
3176.000000	92.367174 
3175.000000	92.365211 
3174.000000	92.363261 
3173.000000	92.361149 
3172.000000	92.358869 
3171.000000	92.356530 
3170.000000	92.354171 
3169.000000	92.351778 
3168.000000	92.349441 
3167.000000	92.347320 
3166.000000	92.345418 
3165.000000	92.343581 
3164.000000	92.341650 
3163.000000	92.339613 
3162.000000	92.337546 
3161.000000	92.335537 
3160.000000	92.333609 
3159.000000	92.331737 
3158.000000	92.329881 
3157.000000	92.328023 
3156.000000	92.326179 
3155.000000	92.324390 
3154.000000	92.322681 
3153.000000	92.321042 
3152.000000	92.319434 
3151.000000	92.317825 
3150.000000	92.316221 
3149.000000	92.314650 
3148.000000	92.313139 
3147.000000	92.311686 
3146.000000	92.310273 
3145.000000	92.308885 
3144.000000	92.307517 
3143.000000	92.306183 
3142.000000	92.304900 
3141.000000	92.303675 
3140.000000	92.302511 
3139.000000	92.301407 
3138.000000	92.300352 
3137.000000	92.299326 
3136.000000	92.298310 
3135.000000	92.297293 
3134.000000	92.296275 
3133.000000	92.295260 
3132.000000	92.294258 
3131.000000	92.293284 
3130.000000	92.292349 
3129.000000	92.291457 
3128.000000	92.290604 
3127.000000	92.289781 
3126.000000	92.288971 
3125.000000	92.288157 
3124.000000	92.287333 
3123.000000	92.286507 
3122.000000	92.285697 
3121.000000	92.284915 
3120.000000	92.284159 
3119.000000	92.283419 
3118.000000	92.282685 
3117.000000	92.281956 
3116.000000	92.281235 
3115.000000	92.280518 
3114.000000	92.279799 
3113.000000	92.279069 
3112.000000	92.278329 
3111.000000	92.277585 
3110.000000	92.276858 
3109.000000	92.276172 
3108.000000	92.275551 
3107.000000	92.275010 
3106.000000	92.274512 
3105.000000	92.273998 
3104.000000	92.273428 
3103.000000	92.272818 
3102.000000	92.272189 
3101.000000	92.271511 
3100.000000	92.270789 
3099.000000	92.270118 
3098.000000	92.269571 
3097.000000	92.269089 
3096.000000	92.268573 
3095.000000	92.267995 
3094.000000	92.267247 
3093.000000	92.265986 
3092.000000	92.263951 
3091.000000	92.261594 
3090.000000	92.259963 
3089.000000	92.259709 
3088.000000	92.260470 
3087.000000	92.261280 
3086.000000	92.261505 
3085.000000	92.261060 
3084.000000	92.260184 
3083.000000	92.259329 
3082.000000	92.258868 
3081.000000	92.258558 
3080.000000	92.257708 
3079.000000	92.256198 
3078.000000	92.254745 
3077.000000	92.253744 
3076.000000	92.252506 
3075.000000	92.250181 
3074.000000	92.247017 
3073.000000	92.244446 
3072.000000	92.244350 
3071.000000	92.248045 
3070.000000	92.254823 
3069.000000	92.261286 
3068.000000	92.263598 
3067.000000	92.261068 
3066.000000	92.256784 
3065.000000	92.254506 
3064.000000	92.255686 
3063.000000	92.259207 
3062.000000	92.262069 
3061.000000	92.260285 
3060.000000	92.251826 
3059.000000	92.240111 
3058.000000	92.232357 
3057.000000	92.232285 
3056.000000	92.235976 
3055.000000	92.237000 
3054.000000	92.234166 
3053.000000	92.231454 
3052.000000	92.231296 
3051.000000	92.231220 
3050.000000	92.227859 
3049.000000	92.221678 
3048.000000	92.216206 
3047.000000	92.213895 
3046.000000	92.214223 
3045.000000	92.215012 
3044.000000	92.214133 
3043.000000	92.210095 
3042.000000	92.202351 
3041.000000	92.191822 
3040.000000	92.180722 
3039.000000	92.171113 
3038.000000	92.163473 
3037.000000	92.156934 
3036.000000	92.150772 
3035.000000	92.144818 
3034.000000	92.138244 
3033.000000	92.129185 
3032.000000	92.116929 
3031.000000	92.103878 
3030.000000	92.093303 
3029.000000	92.084865 
3028.000000	92.074260 
3027.000000	92.057670 
3026.000000	92.035109 
3025.000000	92.009158 
3024.000000	91.982165 
3023.000000	91.955862 
3022.000000	91.932098 
3021.000000	91.911775 
3020.000000	91.893420 
3019.000000	91.874547 
3018.000000	91.854437 
3017.000000	91.834316 
3016.000000	91.814773 
3015.000000	91.794389 
3014.000000	91.771404 
3013.000000	91.745738 
3012.000000	91.718648 
3011.000000	91.691023 
3010.000000	91.662848 
3009.000000	91.634268 
3008.000000	91.606386 
3007.000000	91.580431 
3006.000000	91.556210 
3005.000000	91.532030 
3004.000000	91.506488 
3003.000000	91.479885 
3002.000000	91.453581 
3001.000000	91.428819 
3000.000000	91.407023 
2999.000000	91.390300 
2998.000000	91.379801 
2997.000000	91.373560 
2996.000000	91.367365 
2995.000000	91.357652 
2994.000000	91.342141 
2993.000000	91.318420 
2992.000000	91.285623 
2991.000000	91.249156 
2990.000000	91.221110 
2989.000000	91.213122 
2988.000000	91.229211 
2987.000000	91.265881 
2986.000000	91.316169 
2985.000000	91.371482 
2984.000000	91.422210 
2983.000000	91.461755 
2982.000000	91.490783 
2981.000000	91.514979 
2980.000000	91.537900 
2979.000000	91.557742 
2978.000000	91.570808 
2977.000000	91.575273 
2976.000000	91.571075 
2975.000000	91.559025 
2974.000000	91.541270 
2973.000000	91.520173 
2972.000000	91.495197 
2971.000000	91.463095 
2970.000000	91.423109 
2969.000000	91.380190 
2968.000000	91.341026 
2967.000000	91.308159 
2966.000000	91.280033 
2965.000000	91.255343 
2964.000000	91.234419 
2963.000000	91.216767 
2962.000000	91.200238 
2961.000000	91.183871 
2960.000000	91.169899 
2959.000000	91.161858 
2958.000000	91.161494 
2957.000000	91.168184 
2956.000000	91.180444 
2955.000000	91.196823 
2954.000000	91.215438 
2953.000000	91.233754 
2952.000000	91.249833 
2951.000000	91.263834 
2950.000000	91.277382 
2949.000000	91.290712 
2948.000000	91.301021 
2947.000000	91.304906 
2946.000000	91.302585 
2945.000000	91.298263 
2944.000000	91.295658 
2943.000000	91.294534 
2942.000000	91.292721 
2941.000000	91.289921 
2940.000000	91.287504 
2939.000000	91.285220 
2938.000000	91.280249 
2937.000000	91.270201 
2936.000000	91.255845 
2935.000000	91.240277 
2934.000000	91.226011 
2933.000000	91.213031 
2932.000000	91.198692 
2931.000000	91.179492 
2930.000000	91.154060 
2929.000000	91.125028 
2928.000000	91.097310 
2927.000000	91.074324 
2926.000000	91.057004 
2925.000000	91.046293 
2924.000000	91.044393 
2923.000000	91.051860 
2922.000000	91.064789 
2921.000000	91.077302 
2920.000000	91.087208 
2919.000000	91.097508 
2918.000000	91.111720 
2917.000000	91.129032 
2916.000000	91.144826 
2915.000000	91.155233 
2914.000000	91.160625 
2913.000000	91.165203 
2912.000000	91.173812 
2911.000000	91.188183 
2910.000000	91.205048 
2909.000000	91.218292 
2908.000000	91.224500 
2907.000000	91.226231 
2906.000000	91.228511 
2905.000000	91.232197 
2904.000000	91.233381 
2903.000000	91.230880 
2902.000000	91.232309 
2901.000000	91.248835 
2900.000000	91.283657 
2899.000000	91.326961 
2898.000000	91.363601 
2897.000000	91.385636 
2896.000000	91.396359 
2895.000000	91.404036 
2894.000000	91.413776 
2893.000000	91.424786 
2892.000000	91.433687 
2891.000000	91.439046 
2890.000000	91.442900 
2889.000000	91.448459 
2888.000000	91.456713 
2887.000000	91.465763 
2886.000000	91.473765 
2885.000000	91.481925 
2884.000000	91.493555 
2883.000000	91.510234 
2882.000000	91.529859 
2881.000000	91.548818 
2880.000000	91.565336 
2879.000000	91.580329 
2878.000000	91.595557 
2877.000000	91.611366 
2876.000000	91.625618 
2875.000000	91.634361 
2874.000000	91.634476 
2873.000000	91.627053 
2872.000000	91.618307 
2871.000000	91.615616 
2870.000000	91.621708 
2869.000000	91.632870 
2868.000000	91.643069 
2867.000000	91.649588 
2866.000000	91.654544 
2865.000000	91.661319 
2864.000000	91.670511 
2863.000000	91.679895 
2862.000000	91.687752 
2861.000000	91.694853 
2860.000000	91.702392 
2859.000000	91.708922 
2858.000000	91.711074 
2857.000000	91.707570 
2856.000000	91.701212 
2855.000000	91.696464 
2854.000000	91.696583 
2853.000000	91.703951 
2852.000000	91.721384 
2851.000000	91.749932 
2850.000000	91.785437 
2849.000000	91.819920 
2848.000000	91.847993 
2847.000000	91.870566 
2846.000000	91.891469 
2845.000000	91.912312 
2844.000000	91.932306 
2843.000000	91.951766 
2842.000000	91.972994 
2841.000000	91.996975 
2840.000000	92.020881 
2839.000000	92.040284 
2838.000000	92.053370 
2837.000000	92.062153 
2836.000000	92.069757 
2835.000000	92.077430 
2834.000000	92.084561 
2833.000000	92.090676 
2832.000000	92.096227 
2831.000000	92.101558 
2830.000000	92.106294 
2829.000000	92.110259 
2828.000000	92.114097 
2827.000000	92.118290 
2826.000000	92.122350 
2825.000000	92.125912 
2824.000000	92.129827 
2823.000000	92.134793 
2822.000000	92.139491 
2821.000000	92.141747 
2820.000000	92.141261 
2819.000000	92.139518 
2818.000000	92.137316 
2817.000000	92.134627 
2816.000000	92.133221 
2815.000000	92.136642 
2814.000000	92.145877 
2813.000000	92.156845 
2812.000000	92.164273 
2811.000000	92.166938 
2810.000000	92.167403 
2809.000000	92.167634 
2808.000000	92.167182 
2807.000000	92.165293 
2806.000000	92.162497 
2805.000000	92.159739 
2804.000000	92.157484 
2803.000000	92.156243 
2802.000000	92.156736 
2801.000000	92.158978 
2800.000000	92.161995 
2799.000000	92.164766 
2798.000000	92.166876 
2797.000000	92.168271 
2796.000000	92.169101 
2795.000000	92.169706 
2794.000000	92.170052 
2793.000000	92.169491 
2792.000000	92.168029 
2791.000000	92.167433 
2790.000000	92.169716 
2789.000000	92.174622 
2788.000000	92.179725 
2787.000000	92.183192 
2786.000000	92.185334 
2785.000000	92.187163 
2784.000000	92.188617 
2783.000000	92.188930 
2782.000000	92.188084 
2781.000000	92.187096 
2780.000000	92.187062 
2779.000000	92.188292 
2778.000000	92.190290 
2777.000000	92.192186 
2776.000000	92.193239 
2775.000000	92.193258 
2774.000000	92.192658 
2773.000000	92.192111 
2772.000000	92.191995 
2771.000000	92.192183 
2770.000000	92.192357 
2769.000000	92.192440 
2768.000000	92.192706 
2767.000000	92.193464 
2766.000000	92.194707 
2765.000000	92.196061 
2764.000000	92.197094 
2763.000000	92.197687 
2762.000000	92.198053 
2761.000000	92.198457 
2760.000000	92.198960 
2759.000000	92.199459 
2758.000000	92.199911 
2757.000000	92.200455 
2756.000000	92.201297 
2755.000000	92.202475 
2754.000000	92.203729 
2753.000000	92.204647 
2752.000000	92.205021 
2751.000000	92.205058 
2750.000000	92.205295 
2749.000000	92.206101 
2748.000000	92.207417 
2747.000000	92.208929 
2746.000000	92.210411 
2745.000000	92.211797 
2744.000000	92.212931 
2743.000000	92.213542 
2742.000000	92.213536 
2741.000000	92.213193 
2740.000000	92.212978 
2739.000000	92.213168 
2738.000000	92.213752 
2737.000000	92.214597 
2736.000000	92.215635 
2735.000000	92.216874 
2734.000000	92.218264 
2733.000000	92.219605 
2732.000000	92.220640 
2731.000000	92.221325 
2730.000000	92.221939 
2729.000000	92.222833 
2728.000000	92.224063 
2727.000000	92.225398 
2726.000000	92.226651 
2725.000000	92.227820 
2724.000000	92.228858 
2723.000000	92.229507 
2722.000000	92.229432 
2721.000000	92.228467 
2720.000000	92.226788 
2719.000000	92.224984 
2718.000000	92.223915 
2717.000000	92.224204 
2716.000000	92.225802 
2715.000000	92.228205 
2714.000000	92.231079 
2713.000000	92.234316 
2712.000000	92.237378 
2711.000000	92.239138 
2710.000000	92.238870 
2709.000000	92.237281 
2708.000000	92.236046 
2707.000000	92.236211 
2706.000000	92.237355 
2705.000000	92.238180 
2704.000000	92.237695 
2703.000000	92.235990 
2702.000000	92.234178 
2701.000000	92.233447 
2700.000000	92.233896 
2699.000000	92.234380 
2698.000000	92.233704 
2697.000000	92.231875 
2696.000000	92.229944 
2695.000000	92.228713 
2694.000000	92.227920 
2693.000000	92.226676 
2692.000000	92.224465 
2691.000000	92.221722 
2690.000000	92.219583 
2689.000000	92.218974 
2688.000000	92.219730 
2687.000000	92.220756 
2686.000000	92.221284 
2685.000000	92.221718 
2684.000000	92.222738 
2683.000000	92.223934 
2682.000000	92.224130 
2681.000000	92.223108 
2680.000000	92.222097 
2679.000000	92.222140 
2678.000000	92.222755 
2677.000000	92.222880 
2676.000000	92.222549 
2675.000000	92.222654 
2674.000000	92.223407 
2673.000000	92.224122 
2672.000000	92.224509 
2671.000000	92.225163 
2670.000000	92.226434 
2669.000000	92.227596 
2668.000000	92.227686 
2667.000000	92.226700 
2666.000000	92.225542 
2665.000000	92.225087 
2664.000000	92.225567 
2663.000000	92.226722 
2662.000000	92.228107 
2661.000000	92.229284 
2660.000000	92.230101 
2659.000000	92.230809 
2658.000000	92.231705 
2657.000000	92.232634 
2656.000000	92.233051 
2655.000000	92.232696 
2654.000000	92.231941 
2653.000000	92.231452 
2652.000000	92.231558 
2651.000000	92.232087 
2650.000000	92.232658 
2649.000000	92.233026 
2648.000000	92.233221 
2647.000000	92.233431 
2646.000000	92.233780 
2645.000000	92.234234 
2644.000000	92.234679 
2643.000000	92.235027 
2642.000000	92.235258 
2641.000000	92.235413 
2640.000000	92.235565 
2639.000000	92.235787 
2638.000000	92.236085 
2637.000000	92.236369 
2636.000000	92.236527 
2635.000000	92.236537 
2634.000000	92.236511 
2633.000000	92.236601 
2632.000000	92.236863 
2631.000000	92.237265 
2630.000000	92.237759 
2629.000000	92.238284 
2628.000000	92.238722 
2627.000000	92.238959 
2626.000000	92.239032 
2625.000000	92.239161 
2624.000000	92.239519 
2623.000000	92.240020 
2622.000000	92.240399 
2621.000000	92.240513 
2620.000000	92.240537 
2619.000000	92.240821 
2618.000000	92.241524 
2617.000000	92.242346 
2616.000000	92.242760 
2615.000000	92.242553 
2614.000000	92.242031 
2613.000000	92.241687 
2612.000000	92.241615 
2611.000000	92.241490 
2610.000000	92.241129 
2609.000000	92.240930 
2608.000000	92.241418 
2607.000000	92.242415 
2606.000000	92.242964 
2605.000000	92.242337 
2604.000000	92.240893 
2603.000000	92.239713 
2602.000000	92.239361 
2601.000000	92.239460 
2600.000000	92.239575 
2599.000000	92.239999 
2598.000000	92.241231 
2597.000000	92.243043 
2596.000000	92.244629 
2595.000000	92.245668 
2594.000000	92.246702 
2593.000000	92.248290 
2592.000000	92.250122 
2591.000000	92.251254 
2590.000000	92.251100 
2589.000000	92.249999 
2588.000000	92.248955 
2587.000000	92.248845 
2586.000000	92.249754 
2585.000000	92.250868 
2584.000000	92.251098 
2583.000000	92.249992 
2582.000000	92.248016 
2581.000000	92.245989 
2580.000000	92.244384 
2579.000000	92.243463 
2578.000000	92.243698 
2577.000000	92.245505 
2576.000000	92.248549 
2575.000000	92.251673 
2574.000000	92.253906 
2573.000000	92.255294 
2572.000000	92.256523 
2571.000000	92.258021 
2570.000000	92.259628 
2569.000000	92.260981 
2568.000000	92.261831 
2567.000000	92.261988 
2566.000000	92.261413 
2565.000000	92.260596 
2564.000000	92.260479 
2563.000000	92.261605 
2562.000000	92.263488 
2561.000000	92.265082 
2560.000000	92.265816 
2559.000000	92.265844 
2558.000000	92.265469 
2557.000000	92.264738 
2556.000000	92.263719 
2555.000000	92.262773 
2554.000000	92.262229 
2553.000000	92.262018 
2552.000000	92.261937 
2551.000000	92.262143 
2550.000000	92.263041 
2549.000000	92.264672 
2548.000000	92.266508 
2547.000000	92.267995 
2546.000000	92.269104 
2545.000000	92.270114 
2544.000000	92.270927 
2543.000000	92.270958 
2542.000000	92.269848 
2541.000000	92.268138 
2540.000000	92.267043 
2539.000000	92.267289 
2538.000000	92.268439 
2537.000000	92.269365 
2536.000000	92.269334 
2535.000000	92.268496 
2534.000000	92.267408 
2533.000000	92.266393 
2532.000000	92.265499 
2531.000000	92.264877 
2530.000000	92.264835 
2529.000000	92.265458 
2528.000000	92.266393 
2527.000000	92.267117 
2526.000000	92.267393 
2525.000000	92.267406 
2524.000000	92.267564 
2523.000000	92.268164 
2522.000000	92.269110 
2521.000000	92.269900 
2520.000000	92.269992 
2519.000000	92.269254 
2518.000000	92.268036 
2517.000000	92.266898 
2516.000000	92.266212 
2515.000000	92.265982 
2514.000000	92.265944 
2513.000000	92.265825 
2512.000000	92.265582 
2511.000000	92.265350 
2510.000000	92.265175 
2509.000000	92.264944 
2508.000000	92.264618 
2507.000000	92.264321 
2506.000000	92.264089 
2505.000000	92.263706 
2504.000000	92.263001 
2503.000000	92.262206 
2502.000000	92.261782 
2501.000000	92.261881 
2500.000000	92.262208 
2499.000000	92.262358 
2498.000000	92.262232 
2497.000000	92.261983 
2496.000000	92.261731 
2495.000000	92.261457 
2494.000000	92.261116 
2493.000000	92.260684 
2492.000000	92.260145 
2491.000000	92.259580 
2490.000000	92.259227 
2489.000000	92.259231 
2488.000000	92.259449 
2487.000000	92.259592 
2486.000000	92.259542 
2485.000000	92.259406 
2484.000000	92.259275 
2483.000000	92.259078 
2482.000000	92.258726 
2481.000000	92.258357 
2480.000000	92.258250 
2479.000000	92.258476 
2478.000000	92.258814 
2477.000000	92.259021 
2476.000000	92.259088 
2475.000000	92.259146 
2474.000000	92.259212 
2473.000000	92.259153 
2472.000000	92.258963 
2471.000000	92.258951 
2470.000000	92.259533 
2469.000000	92.260767 
2468.000000	92.262085 
2467.000000	92.262671 
2466.000000	92.262190 
2465.000000	92.261111 
2464.000000	92.260328 
2463.000000	92.260249 
2462.000000	92.260451 
2461.000000	92.260203 
2460.000000	92.259240 
2459.000000	92.257990 
2458.000000	92.257070 
2457.000000	92.256694 
2456.000000	92.256681 
2455.000000	92.256868 
2454.000000	92.257325 
2453.000000	92.258065 
2452.000000	92.258688 
2451.000000	92.258556 
2450.000000	92.257525 
2449.000000	92.256486 
2448.000000	92.256813 
2447.000000	92.259063 
2446.000000	92.262250 
2445.000000	92.264677 
2444.000000	92.265683 
2443.000000	92.265960 
2442.000000	92.266177 
2441.000000	92.265817 
2440.000000	92.264021 
2439.000000	92.261063 
2438.000000	92.258297 
2437.000000	92.256669 
2436.000000	92.255937 
2435.000000	92.255457 
2434.000000	92.255145 
2433.000000	92.255408 
2432.000000	92.256502 
2431.000000	92.258267 
2430.000000	92.260189 
2429.000000	92.261510 
2428.000000	92.261597 
2427.000000	92.260532 
2426.000000	92.259161 
2425.000000	92.258256 
2424.000000	92.257768 
2423.000000	92.257115 
2422.000000	92.256006 
2421.000000	92.254761 
2420.000000	92.253985 
2419.000000	92.254206 
2418.000000	92.255736 
2417.000000	92.258472 
2416.000000	92.261840 
2415.000000	92.265059 
2414.000000	92.267464 
2413.000000	92.268662 
2412.000000	92.268761 
2411.000000	92.268578 
2410.000000	92.269071 
2409.000000	92.270254 
2408.000000	92.270942 
2407.000000	92.270067 
2406.000000	92.268060 
2405.000000	92.266465 
2404.000000	92.266196 
2403.000000	92.266659 
2402.000000	92.266822 
2401.000000	92.266584 
2400.000000	92.266621 
2399.000000	92.267210 
2398.000000	92.267763 
2397.000000	92.267550 
2396.000000	92.266414 
2395.000000	92.264732 
2394.000000	92.263047 
2393.000000	92.261831 
2392.000000	92.261359 
2391.000000	92.261481 
2390.000000	92.261632 
2389.000000	92.261331 
2388.000000	92.260625 
2387.000000	92.259858 
2386.000000	92.259152 
2385.000000	92.258395 
2384.000000	92.257683 
2383.000000	92.257389 
2382.000000	92.257626 
2381.000000	92.257976 
2380.000000	92.257937 
2379.000000	92.257526 
2378.000000	92.257161 
2377.000000	92.257049 
2376.000000	92.256962 
2375.000000	92.256651 
2374.000000	92.256267 
2373.000000	92.256179 
2372.000000	92.256433 
2371.000000	92.256602 
2370.000000	92.256263 
2369.000000	92.255389 
2368.000000	92.254262 
2367.000000	92.253224 
2366.000000	92.252567 
2365.000000	92.252550 
2364.000000	92.253255 
2363.000000	92.254426 
2362.000000	92.255557 
2361.000000	92.256275 
2360.000000	92.256534 
2359.000000	92.256409 
2358.000000	92.256012 
2357.000000	92.255608 
2356.000000	92.255615 
2355.000000	92.256242 
2354.000000	92.257113 
2353.000000	92.257655 
2352.000000	92.257699 
2351.000000	92.257649 
2350.000000	92.258036 
2349.000000	92.258937 
2348.000000	92.259954 
2347.000000	92.260475 
2346.000000	92.260266 
2345.000000	92.259632 
2344.000000	92.259157 
2343.000000	92.259431 
2342.000000	92.260437 
2341.000000	92.261564 
2340.000000	92.262152 
2339.000000	92.262427 
2338.000000	92.263234 
2337.000000	92.264891 
2336.000000	92.266681 
2335.000000	92.267709 
2334.000000	92.267981 
2333.000000	92.268305 
2332.000000	92.269162 
2331.000000	92.269828 
2330.000000	92.269189 
2329.000000	92.266672 
2328.000000	92.263161 
2327.000000	92.259968 
2326.000000	92.258235 
2325.000000	92.258171 
2324.000000	92.259454 
2323.000000	92.261660 
2322.000000	92.264317 
2321.000000	92.266916 
2320.000000	92.268805 
2319.000000	92.269664 
2318.000000	92.269669 
2317.000000	92.269170 
2316.000000	92.268479 
2315.000000	92.267869 
2314.000000	92.268024 
2313.000000	92.269387 
2312.000000	92.271666 
2311.000000	92.273584 
2310.000000	92.274149 
2309.000000	92.273204 
2308.000000	92.271365 
2307.000000	92.269117 
2306.000000	92.266890 
2305.000000	92.265267 
2304.000000	92.265026 
2303.000000	92.266350 
2302.000000	92.268527 
2301.000000	92.270329 
2300.000000	92.271117 
2299.000000	92.271174 
2298.000000	92.271317 
2297.000000	92.271901 
2296.000000	92.272583 
2295.000000	92.272637 
2294.000000	92.271768 
2293.000000	92.270297 
2292.000000	92.268896 
2291.000000	92.268029 
2290.000000	92.267761 
2289.000000	92.267898 
2288.000000	92.268189 
2287.000000	92.268392 
2286.000000	92.268309 
2285.000000	92.267933 
2284.000000	92.267476 
2283.000000	92.267178 
2282.000000	92.267088 
2281.000000	92.267143 
2280.000000	92.267344 
2279.000000	92.267702 
2278.000000	92.267992 
2277.000000	92.267893 
2276.000000	92.267466 
2275.000000	92.267226 
2274.000000	92.267434 
2273.000000	92.267540 
2272.000000	92.266764 
2271.000000	92.265149 
2270.000000	92.263728 
2269.000000	92.263371 
2268.000000	92.263880 
2267.000000	92.264353 
2266.000000	92.264227 
2265.000000	92.263720 
2264.000000	92.263289 
2263.000000	92.263080 
2262.000000	92.263033 
2261.000000	92.263197 
2260.000000	92.263693 
2259.000000	92.264509 
2258.000000	92.265477 
2257.000000	92.266421 
2256.000000	92.267219 
2255.000000	92.267796 
2254.000000	92.268120 
2253.000000	92.268275 
2252.000000	92.268434 
2251.000000	92.268698 
2250.000000	92.268993 
2249.000000	92.269185 
2248.000000	92.269270 
2247.000000	92.269343 
2246.000000	92.269408 
2245.000000	92.269394 
2244.000000	92.269402 
2243.000000	92.269741 
2242.000000	92.270556 
2241.000000	92.271586 
2240.000000	92.272333 
2239.000000	92.272605 
2238.000000	92.272651 
2237.000000	92.272874 
2236.000000	92.273362 
2235.000000	92.273871 
2234.000000	92.274194 
2233.000000	92.274357 
2232.000000	92.274496 
2231.000000	92.274684 
2230.000000	92.274917 
2229.000000	92.275192 
2228.000000	92.275490 
2227.000000	92.275791 
2226.000000	92.276123 
2225.000000	92.276526 
2224.000000	92.276979 
2223.000000	92.277425 
2222.000000	92.277831 
2221.000000	92.278205 
2220.000000	92.278563 
2219.000000	92.278905 
2218.000000	92.279233 
2217.000000	92.279544 
2216.000000	92.279844 
2215.000000	92.280141 
2214.000000	92.280442 
2213.000000	92.280747 
2212.000000	92.281054 
2211.000000	92.281360 
2210.000000	92.281666 
2209.000000	92.281974 
2208.000000	92.282287 
2207.000000	92.282608 
2206.000000	92.282932 
2205.000000	92.283251 
2204.000000	92.283558 
2203.000000	92.283849 
2202.000000	92.284126 
2201.000000	92.284397 
2200.000000	92.284669 
2199.000000	92.284952 
2198.000000	92.285253 
2197.000000	92.285573 
2196.000000	92.285909 
2195.000000	92.286256 
2194.000000	92.286614 
2193.000000	92.286983 
2192.000000	92.287362 
2191.000000	92.287738 
2190.000000	92.288099 
2189.000000	92.288443 
2188.000000	92.288778 
2187.000000	92.289119 
2186.000000	92.289471 
2185.000000	92.289826 
2184.000000	92.290169 
2183.000000	92.290486 
2182.000000	92.290768 
2181.000000	92.291016 
2180.000000	92.291235 
2179.000000	92.291433 
2178.000000	92.291615 
2177.000000	92.291788 
2176.000000	92.291956 
2175.000000	92.292123 
2174.000000	92.292290 
2173.000000	92.292457 
2172.000000	92.292619 
2171.000000	92.292777 
2170.000000	92.292935 
2169.000000	92.293098 
2168.000000	92.293272 
2167.000000	92.293466 
2166.000000	92.293673 
2165.000000	92.293858 
2164.000000	92.293984 
2163.000000	92.294045 
2162.000000	92.294067 
2161.000000	92.294083 
2160.000000	92.294136 
2159.000000	92.294263 
2158.000000	92.294493 
2157.000000	92.294803 
2156.000000	92.295081 
2155.000000	92.295191 
2154.000000	92.295087 
2153.000000	92.294883 
2152.000000	92.294715 
2151.000000	92.294560 
2150.000000	92.294285 
2149.000000	92.293879 
2148.000000	92.293542 
2147.000000	92.293489 
2146.000000	92.293704 
2145.000000	92.293984 
2144.000000	92.294171 
2143.000000	92.294244 
2142.000000	92.294235 
2141.000000	92.294122 
2140.000000	92.293840 
2139.000000	92.293382 
2138.000000	92.292897 
2137.000000	92.292683 
2136.000000	92.292962 
2135.000000	92.293662 
2134.000000	92.294422 
2133.000000	92.294911 
2132.000000	92.295110 
2131.000000	92.295198 
2130.000000	92.295299 
2129.000000	92.295386 
2128.000000	92.295418 
2127.000000	92.295441 
2126.000000	92.295492 
2125.000000	92.295499 
2124.000000	92.295386 
2123.000000	92.295210 
2122.000000	92.295126 
2121.000000	92.295221 
2120.000000	92.295452 
2119.000000	92.295694 
2118.000000	92.295840 
2117.000000	92.295884 
2116.000000	92.295893 
2115.000000	92.295925 
2114.000000	92.295974 
2113.000000	92.296015 
2112.000000	92.296078 
2111.000000	92.296238 
2110.000000	92.296510 
2109.000000	92.296785 
2108.000000	92.296942 
2107.000000	92.297004 
2106.000000	92.297136 
2105.000000	92.297453 
2104.000000	92.297883 
2103.000000	92.298217 
2102.000000	92.298314 
2101.000000	92.298215 
2100.000000	92.298123 
2099.000000	92.298224 
2098.000000	92.298512 
2097.000000	92.298810 
2096.000000	92.298999 
2095.000000	92.299201 
2094.000000	92.299564 
2093.000000	92.299895 
2092.000000	92.299741 
2091.000000	92.298945 
2090.000000	92.297936 
2089.000000	92.297291 
2088.000000	92.297221 
2087.000000	92.297738 
2086.000000	92.298887 
2085.000000	92.300468 
2084.000000	92.301830 
2083.000000	92.302514 
2082.000000	92.302857 
2081.000000	92.303456 
2080.000000	92.304234 
2079.000000	92.304674 
2078.000000	92.304824 
2077.000000	92.305269 
2076.000000	92.306085 
2075.000000	92.306701 
2074.000000	92.306864 
2073.000000	92.306860 
2072.000000	92.306615 
2071.000000	92.305498 
2070.000000	92.303406 
2069.000000	92.301338 
2068.000000	92.300387 
2067.000000	92.300603 
2066.000000	92.301279 
2065.000000	92.301892 
2064.000000	92.302363 
2063.000000	92.302687 
2062.000000	92.302840 
2061.000000	92.302915 
2060.000000	92.302921 
2059.000000	92.302539 
2058.000000	92.301395 
2057.000000	92.299545 
2056.000000	92.297530 
2055.000000	92.296031 
2054.000000	92.295600 
2053.000000	92.296444 
2052.000000	92.298162 
2051.000000	92.299911 
2050.000000	92.301139 
2049.000000	92.302047 
2048.000000	92.303101 
2047.000000	92.304175 
2046.000000	92.304439 
2045.000000	92.303162 
2044.000000	92.300397 
2043.000000	92.297015 
2042.000000	92.294182 
2041.000000	92.292625 
2040.000000	92.292205 
2039.000000	92.292224 
2038.000000	92.292252 
2037.000000	92.292493 
2036.000000	92.293246 
2035.000000	92.294283 
2034.000000	92.294986 
2033.000000	92.295010 
2032.000000	92.294595 
2031.000000	92.294222 
2030.000000	92.294113 
2029.000000	92.294088 
2028.000000	92.293771 
2027.000000	92.292896 
2026.000000	92.291530 
2025.000000	92.290051 
2024.000000	92.288856 
2023.000000	92.288074 
2022.000000	92.287605 
2021.000000	92.287328 
2020.000000	92.287112 
2019.000000	92.286688 
2018.000000	92.285773 
2017.000000	92.284507 
2016.000000	92.283641 
2015.000000	92.283967 
2014.000000	92.285610 
2013.000000	92.287894 
2012.000000	92.289783 
2011.000000	92.290566 
2010.000000	92.290187 
2009.000000	92.289104 
2008.000000	92.287903 
2007.000000	92.286879 
2006.000000	92.285961 
2005.000000	92.285026 
2004.000000	92.284222 
2003.000000	92.283936 
2002.000000	92.284432 
2001.000000	92.285568 
2000.000000	92.286765 
1999.000000	92.287220 
1998.000000	92.286337 
1997.000000	92.284169 
1996.000000	92.281603 
1995.000000	92.279810 
1994.000000	92.279286 
1993.000000	92.279504 
1992.000000	92.279564 
1991.000000	92.279254 
1990.000000	92.279120 
1989.000000	92.279585 
1988.000000	92.280455 
1987.000000	92.281258 
1986.000000	92.281757 
1985.000000	92.282051 
1984.000000	92.282418 
1983.000000	92.283154 
1982.000000	92.284319 
1981.000000	92.285499 
1980.000000	92.286073 
1979.000000	92.285896 
1978.000000	92.285590 
1977.000000	92.285934 
1976.000000	92.287042 
1975.000000	92.288287 
1974.000000	92.288847 
1973.000000	92.288197 
1972.000000	92.286398 
1971.000000	92.284284 
1970.000000	92.282994 
1969.000000	92.282845 
1968.000000	92.282917 
1967.000000	92.282273 
1966.000000	92.281465 
1965.000000	92.281933 
1964.000000	92.284023 
1963.000000	92.286556 
1962.000000	92.288429 
1961.000000	92.289879 
1960.000000	92.291728 
1959.000000	92.293857 
1958.000000	92.295166 
1957.000000	92.294934 
1956.000000	92.293598 
1955.000000	92.292162 
1954.000000	92.291149 
1953.000000	92.290283 
1952.000000	92.289084 
1951.000000	92.287561 
1950.000000	92.286215 
1949.000000	92.285440 
1948.000000	92.285119 
1947.000000	92.284936 
1946.000000	92.284959 
1945.000000	92.285570 
1944.000000	92.286812 
1943.000000	92.288135 
1942.000000	92.289031 
1941.000000	92.289746 
1940.000000	92.290892 
1939.000000	92.292652 
1938.000000	92.294540 
1937.000000	92.295686 
1936.000000	92.295415 
1935.000000	92.293792 
1934.000000	92.291799 
1933.000000	92.290717 
1932.000000	92.291016 
1931.000000	92.291957 
1930.000000	92.292451 
1929.000000	92.292390 
1928.000000	92.292752 
1927.000000	92.294258 
1926.000000	92.296220 
1925.000000	92.297168 
1924.000000	92.296619 
1923.000000	92.295835 
1922.000000	92.296527 
1921.000000	92.298856 
1920.000000	92.301254 
1919.000000	92.301954 
1918.000000	92.300361 
1917.000000	92.297351 
1916.000000	92.294396 
1915.000000	92.292327 
1914.000000	92.291243 
1913.000000	92.290817 
1912.000000	92.290500 
1911.000000	92.289878 
1910.000000	92.289062 
1909.000000	92.288592 
1908.000000	92.288753 
1907.000000	92.289105 
1906.000000	92.288908 
1905.000000	92.288023 
1904.000000	92.287216 
1903.000000	92.287336 
1902.000000	92.288272 
1901.000000	92.288937 
1900.000000	92.288395 
1899.000000	92.286811 
1898.000000	92.285169 
1897.000000	92.284152 
1896.000000	92.283588 
1895.000000	92.283090 
1894.000000	92.282856 
1893.000000	92.283332 
1892.000000	92.284317 
1891.000000	92.284976 
1890.000000	92.284843 
1889.000000	92.284506 
1888.000000	92.284810 
1887.000000	92.285680 
1886.000000	92.286518 
1885.000000	92.287301 
1884.000000	92.288582 
1883.000000	92.290426 
1882.000000	92.291958 
1881.000000	92.292337 
1880.000000	92.291724 
1879.000000	92.291043 
1878.000000	92.290955 
1877.000000	92.291353 
1876.000000	92.291942 
1875.000000	92.292795 
1874.000000	92.294084 
1873.000000	92.295539 
1872.000000	92.296519 
1871.000000	92.296731 
1870.000000	92.296676 
1869.000000	92.297239 
1868.000000	92.298719 
1867.000000	92.300519 
1866.000000	92.301881 
1865.000000	92.302701 
1864.000000	92.303421 
1863.000000	92.304481 
1862.000000	92.306005 
1861.000000	92.307823 
1860.000000	92.309603 
1859.000000	92.311032 
1858.000000	92.312030 
1857.000000	92.312829 
1856.000000	92.313746 
1855.000000	92.314844 
1854.000000	92.315961 
1853.000000	92.317023 
1852.000000	92.318032 
1851.000000	92.318866 
1850.000000	92.319426 
1849.000000	92.319885 
1848.000000	92.320494 
1847.000000	92.321105 
1846.000000	92.321281 
1845.000000	92.321073 
1844.000000	92.321449 
1843.000000	92.323178 
1842.000000	92.325529 
1841.000000	92.327213 
1840.000000	92.327959 
1839.000000	92.328437 
1838.000000	92.329314 
1837.000000	92.330645 
1836.000000	92.332125 
1835.000000	92.333613 
1834.000000	92.335301 
1833.000000	92.337558 
1832.000000	92.340423 
1831.000000	92.342960 
1830.000000	92.343501 
1829.000000	92.341413 
1828.000000	92.337951 
1827.000000	92.334693 
1826.000000	92.332425 
1825.000000	92.331329 
1824.000000	92.331676 
1823.000000	92.333836 
1822.000000	92.337453 
1821.000000	92.341425 
1820.000000	92.344444 
1819.000000	92.345643 
1818.000000	92.344919 
1817.000000	92.343065 
1816.000000	92.341721 
1815.000000	92.342090 
1814.000000	92.343625 
1813.000000	92.344862 
1812.000000	92.345836 
1811.000000	92.348631 
1810.000000	92.354195 
1809.000000	92.360126 
1808.000000	92.363759 
1807.000000	92.365737 
1806.000000	92.368274 
1805.000000	92.371249 
1804.000000	92.372204 
1803.000000	92.369831 
1802.000000	92.366047 
1801.000000	92.363996 
1800.000000	92.364929 
1799.000000	92.367775 
1798.000000	92.370890 
1797.000000	92.373533 
1796.000000	92.375870 
1795.000000	92.378152 
1794.000000	92.380371 
1793.000000	92.382427 
1792.000000	92.384677 
1791.000000	92.387964 
1790.000000	92.392261 
1789.000000	92.397306 
1788.000000	92.404086 
1787.000000	92.413009 
1786.000000	92.421555 
1785.000000	92.426211 
1784.000000	92.427519 
1783.000000	92.429525 
1782.000000	92.434018 
1781.000000	92.437911 
1780.000000	92.437360 
1779.000000	92.433480 
1778.000000	92.430719 
1777.000000	92.431914 
1776.000000	92.437300 
1775.000000	92.446608 
1774.000000	92.459828 
1773.000000	92.474913 
1772.000000	92.487529 
1771.000000	92.496506 
1770.000000	92.504780 
1769.000000	92.515154 
1768.000000	92.528509 
1767.000000	92.543761 
1766.000000	92.558984 
1765.000000	92.572584 
1764.000000	92.585063 
1763.000000	92.598697 
1762.000000	92.614965 
1761.000000	92.632365 
1760.000000	92.648017 
1759.000000	92.661598 
1758.000000	92.675318 
1757.000000	92.689668 
1756.000000	92.702569 
1755.000000	92.713904 
1754.000000	92.726664 
1753.000000	92.742797 
1752.000000	92.759023 
1751.000000	92.769640 
1750.000000	92.774690 
1749.000000	92.778909 
1748.000000	92.783842 
1747.000000	92.788314 
1746.000000	92.793093 
1745.000000	92.799665 
1744.000000	92.806755 
1743.000000	92.811662 
1742.000000	92.814363 
1741.000000	92.817144 
1740.000000	92.820384 
1739.000000	92.821578 
1738.000000	92.818921 
1737.000000	92.812859 
1736.000000	92.803979 
1735.000000	92.789552 
1734.000000	92.767719 
1733.000000	92.747603 
1732.000000	92.736820 
1731.000000	92.733430 
1730.000000	92.735594 
1729.000000	92.740716 
1728.000000	92.744194 
1727.000000	92.741955 
1726.000000	92.733261 
1725.000000	92.720102 
1724.000000	92.706071 
1723.000000	92.695114 
1722.000000	92.688756 
1721.000000	92.684940 
1720.000000	92.679813 
1719.000000	92.669254 
1718.000000	92.650965 
1717.000000	92.629927 
1716.000000	92.615008 
1715.000000	92.607405 
1714.000000	92.602190 
1713.000000	92.594604 
1712.000000	92.582326 
1711.000000	92.565271 
1710.000000	92.544868 
1709.000000	92.523658 
1708.000000	92.504172 
1707.000000	92.488059 
1706.000000	92.475612 
1705.000000	92.465799 
1704.000000	92.456557 
1703.000000	92.445820 
1702.000000	92.433253 
1701.000000	92.419778 
1700.000000	92.409033 
1699.000000	92.405272 
1698.000000	92.404888 
1697.000000	92.404333 
1696.000000	92.404149 
1695.000000	92.403890 
1694.000000	92.400879 
1693.000000	92.393195 
1692.000000	92.384078 
1691.000000	92.377350 
1690.000000	92.372684 
1689.000000	92.367119 
1688.000000	92.359789 
1687.000000	92.353551 
1686.000000	92.351265 
1685.000000	92.350189 
1684.000000	92.343045 
1683.000000	92.331000 
1682.000000	92.319919 
1681.000000	92.311067 
1680.000000	92.305157 
1679.000000	92.302617 
1678.000000	92.303325 
1677.000000	92.305559 
1676.000000	92.305846 
1675.000000	92.301627 
1674.000000	92.295362 
1673.000000	92.290318 
1672.000000	92.286411 
1671.000000	92.282515 
1670.000000	92.278800 
1669.000000	92.277062 
1668.000000	92.277033 
1667.000000	92.275528 
1666.000000	92.270917 
1665.000000	92.264416 
1664.000000	92.258091 
1663.000000	92.253315 
1662.000000	92.250556 
1661.000000	92.249455 
1660.000000	92.249001 
1659.000000	92.248259 
1658.000000	92.246776 
1657.000000	92.244608 
1656.000000	92.242087 
1655.000000	92.239338 
1654.000000	92.235410 
1653.000000	92.230306 
1652.000000	92.227469 
1651.000000	92.226676 
1650.000000	92.225489 
1649.000000	92.224097 
1648.000000	92.222860 
1647.000000	92.221654 
1646.000000	92.220492 
1645.000000	92.219661 
1644.000000	92.218760 
1643.000000	92.217333 
1642.000000	92.215197 
1641.000000	92.212324 
1640.000000	92.208972 
1639.000000	92.205641 
1638.000000	92.202820 
1637.000000	92.200867 
1636.000000	92.199951 
1635.000000	92.200107 
1634.000000	92.200433 
1633.000000	92.199186 
1632.000000	92.196248 
1631.000000	92.192942 
1630.000000	92.190438 
1629.000000	92.189266 
1628.000000	92.189383 
1627.000000	92.190099 
1626.000000	92.190251 
1625.000000	92.189263 
1624.000000	92.187960 
1623.000000	92.187778 
1622.000000	92.188711 
1621.000000	92.188886 
1620.000000	92.187104 
1619.000000	92.184620 
1618.000000	92.183401 
1617.000000	92.183692 
1616.000000	92.184166 
1615.000000	92.183508 
1614.000000	92.181290 
1613.000000	92.179044 
1612.000000	92.179189 
1611.000000	92.182989 
1610.000000	92.189581 
1609.000000	92.196426 
1608.000000	92.201101 
1607.000000	92.202606 
1606.000000	92.201420 
1605.000000	92.198882 
1604.000000	92.196647 
1603.000000	92.196239 
1602.000000	92.197819 
1601.000000	92.199697 
1600.000000	92.200211 
1599.000000	92.199793 
1598.000000	92.200438 
1597.000000	92.203367 
1596.000000	92.208423 
1595.000000	92.215073 
1594.000000	92.222560 
1593.000000	92.229428 
1592.000000	92.234292 
1591.000000	92.237249 
1590.000000	92.239681 
1589.000000	92.242580 
1588.000000	92.245782 
1587.000000	92.249012 
1586.000000	92.252701 
1585.000000	92.257416 
1584.000000	92.262884 
1583.000000	92.268429 
1582.000000	92.274015 
1581.000000	92.280123 
1580.000000	92.286835 
1579.000000	92.293996 
1578.000000	92.301600 
1577.000000	92.309102 
1576.000000	92.315410 
1575.000000	92.320095 
1574.000000	92.323303 
1573.000000	92.325588 
1572.000000	92.328173 
1571.000000	92.332170 
1570.000000	92.337952 
1569.000000	92.344874 
1568.000000	92.351647 
1567.000000	92.357507 
1566.000000	92.362736 
1565.000000	92.367841 
1564.000000	92.372880 
1563.000000	92.377731 
1562.000000	92.382421 
1561.000000	92.387036 
1560.000000	92.391350 
1559.000000	92.395293 
1558.000000	92.400158 
1557.000000	92.405875 
1556.000000	92.411066 
1555.000000	92.415644 
1554.000000	92.420055 
1553.000000	92.424662 
1552.000000	92.429381 
1551.000000	92.433940 
1550.000000	92.438214 
1549.000000	92.442332 
1548.000000	92.446483 
1547.000000	92.450704 
1546.000000	92.455064 
1545.000000	92.459758 
1544.000000	92.464967 
1543.000000	92.470638 
1542.000000	92.476240 
1541.000000	92.480810 
1540.000000	92.483786 
1539.000000	92.486330 
1538.000000	92.489727 
1537.000000	92.493432 
1536.000000	92.496933 
1535.000000	92.500240 
1534.000000	92.503446 
1533.000000	92.506693 
1532.000000	92.510146 
1531.000000	92.513584 
1530.000000	92.516622 
1529.000000	92.519195 
1528.000000	92.521696 
1527.000000	92.524756 
1526.000000	92.528581 
1525.000000	92.532485 
1524.000000	92.535476 
1523.000000	92.537222 
1522.000000	92.538117 
1521.000000	92.539213 
1520.000000	92.541608 
1519.000000	92.545101 
1518.000000	92.548887 
1517.000000	92.552187 
1516.000000	92.554444 
1515.000000	92.556095 
1514.000000	92.557823 
1513.000000	92.559718 
1512.000000	92.561350 
1511.000000	92.562530 
1510.000000	92.563791 
1509.000000	92.565842 
1508.000000	92.568132 
1507.000000	92.568451 
1506.000000	92.567336 
1505.000000	92.567282 
1504.000000	92.566891 
1503.000000	92.565658 
1502.000000	92.564782 
1501.000000	92.564909 
1500.000000	92.565842 
1499.000000	92.567401 
1498.000000	92.569681 
1497.000000	92.571614 
1496.000000	92.571293 
1495.000000	92.568711 
1494.000000	92.565997 
1493.000000	92.565034 
1492.000000	92.566239 
1491.000000	92.568482 
1490.000000	92.570099 
1489.000000	92.570658 
1488.000000	92.570985 
1487.000000	92.571753 
1486.000000	92.572975 
1485.000000	92.574293 
1484.000000	92.574927 
1483.000000	92.573880 
1482.000000	92.570932 
1481.000000	92.567449 
1480.000000	92.565656 
1479.000000	92.566533 
1478.000000	92.568991 
1477.000000	92.570662 
1476.000000	92.569926 
1475.000000	92.567480 
1474.000000	92.564721 
1473.000000	92.561030 
1472.000000	92.555366 
1471.000000	92.549785 
1470.000000	92.546666 
1469.000000	92.546020 
1468.000000	92.546406 
1467.000000	92.546408 
1466.000000	92.546567 
1465.000000	92.549388 
1464.000000	92.556254 
1463.000000	92.565079 
1462.000000	92.572805 
1461.000000	92.578938 
1460.000000	92.585258 
1459.000000	92.592896 
1458.000000	92.597648 
1457.000000	92.590869 
1456.000000	92.574325 
1455.000000	92.559605 
1454.000000	92.551460 
1453.000000	92.549126 
1452.000000	92.549441 
1451.000000	92.550205 
1450.000000	92.552444 
1449.000000	92.557360 
1448.000000	92.562266 
1447.000000	92.563344 
1446.000000	92.561623 
1445.000000	92.560859 
1444.000000	92.561782 
1443.000000	92.561579 
1442.000000	92.557274 
1441.000000	92.548543 
1440.000000	92.537243 
1439.000000	92.526199 
1438.000000	92.518576 
1437.000000	92.515995 
1436.000000	92.516900 
1435.000000	92.517965 
1434.000000	92.516985 
1433.000000	92.514847 
1432.000000	92.513773 
1431.000000	92.513753 
1430.000000	92.511891 
1429.000000	92.505001 
1428.000000	92.493015 
1427.000000	92.479189 
1426.000000	92.467330 
1425.000000	92.458703 
1424.000000	92.450941 
1423.000000	92.441089 
1422.000000	92.428494 
1421.000000	92.412962 
1420.000000	92.392116 
1419.000000	92.364473 
1418.000000	92.336223 
1417.000000	92.314786 
1416.000000	92.299658 
1415.000000	92.285760 
1414.000000	92.268219 
1413.000000	92.245716 
1412.000000	92.221583 
1411.000000	92.200660 
1410.000000	92.184724 
1409.000000	92.172204 
1408.000000	92.162319 
1407.000000	92.157053 
1406.000000	92.159079 
1405.000000	92.169591 
1404.000000	92.187561 
1403.000000	92.209547 
1402.000000	92.230852 
1401.000000	92.248320 
1400.000000	92.261674 
1399.000000	92.271122 
1398.000000	92.272593 
1397.000000	92.257482 
1396.000000	92.222605 
1395.000000	92.183705 
1394.000000	92.170704 
1393.000000	92.197823 
1392.000000	92.250556 
1391.000000	92.303676 
1390.000000	92.341364 
1389.000000	92.361883 
1388.000000	92.371500 
1387.000000	92.377328 
1386.000000	92.383866 
1385.000000	92.392747 
1384.000000	92.403805 
1383.000000	92.416455 
1382.000000	92.430678 
1381.000000	92.446960 
1380.000000	92.464880 
1379.000000	92.482429 
1378.000000	92.498040 
1377.000000	92.512715 
1376.000000	92.528555 
1375.000000	92.545505 
1374.000000	92.561181 
1373.000000	92.574105 
1372.000000	92.584756 
1371.000000	92.593752 
1370.000000	92.601901 
1369.000000	92.611550 
1368.000000	92.625076 
1367.000000	92.641318 
1366.000000	92.655554 
1365.000000	92.663851 
1364.000000	92.666702 
1363.000000	92.668796 
1362.000000	92.675071 
1361.000000	92.686355 
1360.000000	92.699786 
1359.000000	92.712823 
1358.000000	92.725117 
1357.000000	92.737173 
1356.000000	92.748630 
1355.000000	92.758523 
1354.000000	92.766828 
1353.000000	92.774631 
1352.000000	92.782338 
1351.000000	92.788456 
1350.000000	92.791733 
1349.000000	92.793681 
1348.000000	92.796528 
1347.000000	92.801299 
1346.000000	92.808095 
1345.000000	92.816246 
1344.000000	92.823366 
1343.000000	92.825559 
1342.000000	92.820271 
1341.000000	92.809188 
1340.000000	92.797801 
1339.000000	92.791213 
1338.000000	92.790160 
1337.000000	92.791645 
1336.000000	92.792715 
1335.000000	92.792912 
1334.000000	92.793878 
1333.000000	92.797290 
1332.000000	92.802969 
1331.000000	92.808718 
1330.000000	92.812197 
1329.000000	92.813059 
1328.000000	92.812988 
1327.000000	92.813758 
1326.000000	92.815372 
1325.000000	92.815983 
1324.000000	92.813352 
1323.000000	92.806850 
1322.000000	92.798523 
1321.000000	92.791616 
1320.000000	92.787664 
1319.000000	92.785741 
1318.000000	92.784838 
1317.000000	92.785804 
1316.000000	92.789648 
1315.000000	92.794737 
1314.000000	92.797567 
1313.000000	92.796654 
1312.000000	92.794129 
1311.000000	92.792521 
1310.000000	92.791258 
1309.000000	92.788051 
1308.000000	92.783173 
1307.000000	92.780506 
1306.000000	92.783416 
1305.000000	92.790559 
1304.000000	92.796705 
1303.000000	92.797587 
1302.000000	92.793411 
1301.000000	92.787804 
1300.000000	92.783860 
1299.000000	92.781358 
1298.000000	92.777615 
1297.000000	92.770759 
1296.000000	92.761995 
1295.000000	92.754499 
1294.000000	92.750277 
1293.000000	92.748658 
1292.000000	92.747696 
1291.000000	92.746018 
1290.000000	92.742929 
1289.000000	92.737856 
1288.000000	92.730729 
1287.000000	92.722282 
1286.000000	92.713308 
1285.000000	92.704462 
1284.000000	92.697578 
1283.000000	92.695554 
1282.000000	92.698630 
1281.000000	92.701671 
1280.000000	92.697797 
1279.000000	92.684896 
1278.000000	92.667275 
1277.000000	92.651193 
1276.000000	92.639966 
1275.000000	92.632905 
1274.000000	92.626673 
1273.000000	92.617184 
1272.000000	92.602032 
1271.000000	92.582065 
1270.000000	92.559996 
1269.000000	92.537796 
1268.000000	92.516711 
1267.000000	92.498691 
1266.000000	92.484769 
1265.000000	92.471946 
1264.000000	92.454834 
1263.000000	92.431554 
1262.000000	92.405920 
1261.000000	92.383075 
1260.000000	92.365153 
1259.000000	92.351553 
1258.000000	92.340807 
1257.000000	92.331181 
1256.000000	92.321567 
1255.000000	92.312483 
1254.000000	92.304184 
1253.000000	92.293870 
1252.000000	92.278443 
1251.000000	92.261163 
1250.000000	92.251512 
1249.000000	92.255872 
1248.000000	92.271037 
1247.000000	92.288176 
1246.000000	92.299737 
1245.000000	92.300702 
1244.000000	92.288815 
1243.000000	92.269932 
1242.000000	92.259562 
1241.000000	92.270684 
1240.000000	92.299674 
1239.000000	92.329445 
1238.000000	92.347525 
1237.000000	92.355666 
1236.000000	92.360944 
1235.000000	92.365114 
1234.000000	92.366567 
1233.000000	92.366508 
1232.000000	92.366611 
1231.000000	92.363576 
1230.000000	92.352467 
1229.000000	92.334875 
1228.000000	92.318456 
1227.000000	92.307399 
1226.000000	92.297015 
1225.000000	92.279539 
1224.000000	92.253298 
1223.000000	92.225222 
1222.000000	92.205969 
1221.000000	92.203183 
1220.000000	92.217147 
1219.000000	92.239883 
1218.000000	92.258493 
1217.000000	92.261951 
1216.000000	92.246819 
1215.000000	92.217899 
1214.000000	92.183838 
1213.000000	92.150993 
1212.000000	92.120473 
1211.000000	92.090214 
1210.000000	92.058924 
1209.000000	92.027717 
1208.000000	91.998697 
1207.000000	91.972792 
1206.000000	91.948770 
1205.000000	91.923572 
1204.000000	91.893477 
1203.000000	91.855870 
1202.000000	91.810917 
1201.000000	91.761760 
1200.000000	91.712674 
1199.000000	91.666452 
1198.000000	91.623160 
1197.000000	91.581270 
1196.000000	91.539821 
1195.000000	91.499199 
1194.000000	91.460017 
1193.000000	91.422314 
1192.000000	91.386288 
1191.000000	91.352791 
1190.000000	91.322385 
1189.000000	91.294665 
1188.000000	91.268902 
1187.000000	91.243977 
1186.000000	91.216955 
1185.000000	91.183842 
1184.000000	91.144073 
1183.000000	91.103289 
1182.000000	91.068942 
1181.000000	91.042897 
1180.000000	91.020120 
1179.000000	90.994167 
1178.000000	90.961677 
1177.000000	90.921867 
1176.000000	90.875101 
1175.000000	90.823795 
1174.000000	90.772397 
1173.000000	90.724130 
1172.000000	90.678580 
1171.000000	90.633649 
1170.000000	90.588693 
1169.000000	90.544776 
1168.000000	90.503019 
1167.000000	90.464168 
1166.000000	90.429589 
1165.000000	90.402128 
1164.000000	90.386135 
1163.000000	90.386122 
1162.000000	90.403515 
1161.000000	90.433496 
1160.000000	90.465914 
1159.000000	90.490784 
1158.000000	90.503159 
1157.000000	90.502425 
1156.000000	90.488399 
1155.000000	90.460669 
1154.000000	90.421727 
1153.000000	90.377695 
1152.000000	90.333854 
1151.000000	90.290589 
1150.000000	90.245570 
1149.000000	90.199153 
1148.000000	90.155355 
1147.000000	90.116908 
1146.000000	90.081120 
1145.000000	90.042331 
1144.000000	89.997778 
1143.000000	89.949605 
1142.000000	89.901540 
1141.000000	89.855158 
1140.000000	89.809463 
1139.000000	89.762362 
1138.000000	89.711698 
1137.000000	89.655922 
1136.000000	89.594898 
1135.000000	89.530126 
1134.000000	89.464136 
1133.000000	89.399933 
1132.000000	89.340372 
1131.000000	89.286236 
1130.000000	89.234556 
1129.000000	89.180702 
1128.000000	89.122937 
1127.000000	89.063934 
1126.000000	89.007704 
1125.000000	88.956177 
1124.000000	88.908407 
1123.000000	88.861081 
1122.000000	88.810130 
1121.000000	88.754649 
1120.000000	88.699552 
1119.000000	88.651421 
1118.000000	88.610656 
1117.000000	88.570108 
1116.000000	88.522271 
1115.000000	88.465607 
1114.000000	88.403897 
1113.000000	88.343167 
1112.000000	88.290345 
1111.000000	88.250193 
1110.000000	88.220272 
1109.000000	88.191282 
1108.000000	88.155109 
1107.000000	88.111808 
1106.000000	88.067360 
1105.000000	88.027184 
1104.000000	87.994153 
1103.000000	87.970041 
1102.000000	87.955339 
1101.000000	87.948619 
1100.000000	87.948005 
1099.000000	87.952409 
1098.000000	87.959449 
1097.000000	87.963991 
1096.000000	87.960472 
1095.000000	87.944799 
1094.000000	87.911970 
1093.000000	87.854673 
1092.000000	87.769325 
1091.000000	87.664287 
1090.000000	87.557802 
1089.000000	87.463939 
1088.000000	87.381671 
1087.000000	87.299674 
1086.000000	87.210246 
1085.000000	87.116235 
1084.000000	87.024975 
1083.000000	86.938901 
1082.000000	86.854650 
1081.000000	86.769881 
1080.000000	86.687183 
1079.000000	86.610478 
1078.000000	86.541377 
1077.000000	86.481537 
1076.000000	86.434741 
1075.000000	86.402159 
1074.000000	86.378115 
1073.000000	86.354791 
1072.000000	86.327543 
1071.000000	86.289529 
1070.000000	86.225597 
1069.000000	86.123511 
1068.000000	85.994842 
1067.000000	85.876421 
1066.000000	85.802816 
1065.000000	85.779754 
1064.000000	85.786688 
1063.000000	85.798264 
1062.000000	85.798353 
1061.000000	85.780247 
1060.000000	85.745969 
1059.000000	85.709050 
1058.000000	85.690130 
1057.000000	85.701643 
1056.000000	85.735696 
1055.000000	85.769354 
1054.000000	85.782820 
1053.000000	85.771218 
1052.000000	85.738273 
1051.000000	85.682776 
1050.000000	85.597889 
1049.000000	85.484233 
1048.000000	85.355783 
1047.000000	85.227963 
1046.000000	85.104540 
1045.000000	84.981155 
1044.000000	84.857887 
1043.000000	84.741634 
1042.000000	84.636176 
1041.000000	84.535552 
1040.000000	84.430740 
1039.000000	84.322447 
1038.000000	84.226467 
1037.000000	84.164818 
1036.000000	84.147950 
1035.000000	84.163471 
1034.000000	84.184867 
1033.000000	84.193217 
1032.000000	84.186017 
1031.000000	84.165552 
1030.000000	84.131423 
1029.000000	84.091843 
1028.000000	84.070542 
1027.000000	84.087297 
1026.000000	84.134413 
1025.000000	84.184688 
1024.000000	84.221338 
1023.000000	84.248165 
1022.000000	84.272176 
1021.000000	84.290458 
1020.000000	84.297169 
1019.000000	84.293049 
1018.000000	84.284008 
1017.000000	84.277377 
1016.000000	84.281793 
1015.000000	84.303115 
1014.000000	84.337019 
1013.000000	84.371597 
1012.000000	84.399689 
1011.000000	84.423623 
1010.000000	84.447894 
1009.000000	84.474516 
1008.000000	84.506824 
1007.000000	84.549638 
1006.000000	84.601568 
1005.000000	84.652676 
1004.000000	84.693977 
1003.000000	84.726352 
1002.000000	84.758191 
1001.000000	84.797329 
1000.000000	84.846511 
999.000000	 84.903042 
998.000000	 84.960896 
997.000000	 85.015250 
996.000000	 85.065619 
995.000000	 85.113403 
994.000000	 85.158165 
993.000000	 85.199381 
992.000000	 85.240479 
991.000000	 85.287188 
990.000000	 85.341896 
989.000000	 85.402420 
988.000000	 85.465555 
987.000000	 85.529386 
986.000000	 85.594029 
985.000000	 85.663105 
984.000000	 85.742129 
983.000000	 85.832497 
982.000000	 85.929752 
981.000000	 86.029662 
980.000000	 86.131936 
979.000000	 86.235161 
978.000000	 86.333709 
977.000000	 86.425274 
976.000000	 86.516919 
975.000000	 86.617362 
974.000000	 86.726617 
973.000000	 86.838738 
972.000000	 86.950900 
971.000000	 87.063514 
970.000000	 87.175148 
969.000000	 87.284539 
968.000000	 87.394779 
967.000000	 87.508387 
966.000000	 87.620745 
965.000000	 87.725813 
964.000000	 87.826284 
963.000000	 87.930122 
962.000000	 88.037641 
961.000000	 88.139692 
960.000000	 88.229497 
959.000000	 88.309646 
958.000000	 88.386273 
957.000000	 88.461669 
956.000000	 88.534441 
955.000000	 88.602711 
954.000000	 88.665092 
953.000000	 88.721113 
952.000000	 88.772113 
951.000000	 88.820567 
950.000000	 88.868411 
949.000000	 88.916364 
948.000000	 88.962888 
947.000000	 89.002947 
946.000000	 89.031751 
945.000000	 89.052302 
944.000000	 89.075175 
943.000000	 89.106768 
942.000000	 89.141269 
941.000000	 89.168950 
940.000000	 89.188495 
939.000000	 89.205556 
938.000000	 89.222755 
937.000000	 89.238289 
936.000000	 89.252649 
935.000000	 89.269062 
934.000000	 89.287266 
933.000000	 89.303524 
932.000000	 89.317615 
931.000000	 89.334143 
930.000000	 89.356064 
929.000000	 89.381642 
928.000000	 89.407824 
927.000000	 89.431636 
926.000000	 89.448935 
925.000000	 89.458021 
924.000000	 89.465012 
923.000000	 89.479346 
922.000000	 89.502132 
921.000000	 89.524342 
920.000000	 89.538494 
919.000000	 89.547307 
918.000000	 89.558629 
917.000000	 89.576107 
916.000000	 89.597445 
915.000000	 89.618454 
914.000000	 89.636529 
913.000000	 89.652417 
912.000000	 89.669562 
911.000000	 89.689556 
910.000000	 89.709297 
909.000000	 89.726697 
908.000000	 89.748409 
907.000000	 89.786147 
906.000000	 89.843879 
905.000000	 89.913222 
904.000000	 89.983064 
903.000000	 90.049782 
902.000000	 90.116541 
901.000000	 90.187026 
900.000000	 90.262552 
899.000000	 90.342264 
898.000000	 90.423532 
897.000000	 90.503460 
896.000000	 90.580848 
895.000000	 90.655429 
894.000000	 90.725954 
893.000000	 90.791911 
892.000000	 90.856922 
891.000000	 90.927371 
890.000000	 91.007170 
889.000000	 91.095863 
888.000000	 91.190658 
887.000000	 91.286785 
886.000000	 91.376879 
885.000000	 91.454567 
884.000000	 91.519077 
883.000000	 91.572762 
882.000000	 91.614631 
881.000000	 91.641519 
880.000000	 91.656003 
879.000000	 91.666572 
878.000000	 91.676932 
877.000000	 91.681552 
876.000000	 91.676451 
875.000000	 91.667629 
874.000000	 91.661997 
873.000000	 91.655438 
872.000000	 91.639964 
871.000000	 91.621280 
870.000000	 91.618849 
869.000000	 91.645255 
868.000000	 91.692312 
867.000000	 91.740828 
866.000000	 91.780376 
865.000000	 91.816191 
864.000000	 91.858896 
863.000000	 91.911478 
862.000000	 91.966144 
861.000000	 92.011360 
860.000000	 92.041447 
859.000000	 92.061087 
858.000000	 92.081182 
857.000000	 92.109027 
856.000000	 92.142184 
855.000000	 92.172753 
854.000000	 92.197116 
853.000000	 92.219102 
852.000000	 92.242674 
851.000000	 92.264857 
850.000000	 92.279944 
849.000000	 92.289597 
848.000000	 92.303127 
847.000000	 92.325046 
846.000000	 92.346374 
845.000000	 92.353281 
844.000000	 92.343069 
843.000000	 92.327196 
842.000000	 92.318531 
841.000000	 92.319636 
840.000000	 92.324008 
839.000000	 92.323290 
838.000000	 92.310944 
837.000000	 92.284557 
836.000000	 92.249812 
835.000000	 92.219136 
834.000000	 92.200265 
833.000000	 92.186893 
832.000000	 92.166051 
831.000000	 92.134882 
830.000000	 92.105612 
829.000000	 92.093299 
828.000000	 92.103235 
827.000000	 92.130825 
826.000000	 92.166801 
825.000000	 92.198354 
824.000000	 92.211182 
823.000000	 92.199423 
822.000000	 92.173924 
821.000000	 92.154208 
820.000000	 92.149953 
819.000000	 92.152596 
818.000000	 92.145303 
817.000000	 92.119371 
816.000000	 92.080059 
815.000000	 92.037747 
814.000000	 91.995782 
813.000000	 91.948385 
812.000000	 91.887831 
811.000000	 91.808002 
810.000000	 91.699833 
809.000000	 91.550304 
808.000000	 91.353480 
807.000000	 91.121986 
806.000000	 90.881655 
805.000000	 90.653343 
804.000000	 90.443168 
803.000000	 90.248813 
802.000000	 90.069885 
801.000000	 89.912715 
800.000000	 89.789913 
799.000000	 89.714867 
798.000000	 89.692371 
797.000000	 89.714399 
796.000000	 89.766924 
795.000000	 89.838614 
794.000000	 89.920858 
793.000000	 90.004234 
792.000000	 90.081005 
791.000000	 90.149372 
790.000000	 90.209272 
789.000000	 90.253995 
788.000000	 90.271576 
787.000000	 90.255989 
786.000000	 90.212438 
785.000000	 90.149834 
784.000000	 90.072798 
783.000000	 89.984122 
782.000000	 89.891374 
781.000000	 89.807393 
780.000000	 89.745818 
779.000000	 89.717371 
778.000000	 89.727122 
777.000000	 89.772535 
776.000000	 89.845160 
775.000000	 89.935449 
774.000000	 90.035705 
773.000000	 90.139527 
772.000000	 90.241379 
771.000000	 90.337676 
770.000000	 90.426146 
769.000000	 90.503341 
768.000000	 90.565733 
767.000000	 90.615156 
766.000000	 90.659729 
765.000000	 90.705557 
764.000000	 90.749295 
763.000000	 90.782570 
762.000000	 90.802552 
761.000000	 90.814304 
760.000000	 90.823426 
759.000000	 90.831036 
758.000000	 90.837116 
757.000000	 90.845156 
756.000000	 90.860983 
755.000000	 90.887711 
754.000000	 90.922870 
753.000000	 90.960854 
752.000000	 90.998713 
751.000000	 91.039586 
750.000000	 91.088735 
749.000000	 91.145238 
748.000000	 91.199991 
747.000000	 91.244141 
746.000000	 91.277485 
745.000000	 91.305954 
744.000000	 91.333928 
743.000000	 91.363878 
742.000000	 91.401053 
741.000000	 91.451079 
740.000000	 91.511781 
739.000000	 91.573033 
738.000000	 91.626397 
737.000000	 91.670225 
736.000000	 91.704631 
735.000000	 91.727183 
734.000000	 91.736767 
733.000000	 91.738670 
732.000000	 91.742124 
731.000000	 91.754365 
730.000000	 91.779133 
729.000000	 91.816891 
728.000000	 91.861870 
727.000000	 91.902222 
726.000000	 91.928899 
725.000000	 91.943262 
724.000000	 91.952771 
723.000000	 91.961465 
722.000000	 91.968982 
721.000000	 91.977225 
720.000000	 91.992042 
719.000000	 92.016263 
718.000000	 92.044336 
717.000000	 92.066206 
716.000000	 92.075760 
715.000000	 92.075426 
714.000000	 92.073389 
713.000000	 92.075534 
712.000000	 92.079788 
711.000000	 92.079993 
710.000000	 92.075132 
709.000000	 92.071079 
708.000000	 92.071667 
707.000000	 92.071837 
706.000000	 92.063868 
705.000000	 92.046493 
704.000000	 92.022002 
703.000000	 91.986732 
702.000000	 91.931262 
701.000000	 91.851503 
700.000000	 91.754049 
699.000000	 91.646787 
698.000000	 91.530050 
697.000000	 91.404759 
696.000000	 91.289705 
695.000000	 91.222868 
694.000000	 91.236926 
693.000000	 91.331949 
692.000000	 91.470446 
691.000000	 91.600830 
690.000000	 91.691870 
689.000000	 91.744638 
688.000000	 91.776523 
687.000000	 91.801529 
686.000000	 91.824822 
685.000000	 91.848414 
684.000000	 91.875054 
683.000000	 91.907382 
682.000000	 91.947886 
681.000000	 91.998475 
680.000000	 92.056431 
679.000000	 92.111472 
678.000000	 92.151760 
677.000000	 92.175168 
676.000000	 92.190455 
675.000000	 92.208880 
674.000000	 92.232993 
673.000000	 92.254569 
672.000000	 92.263650 
671.000000	 92.259916 
670.000000	 92.253709 
669.000000	 92.264821 
668.000000	 92.312220 
667.000000	 92.372998 
666.000000	 92.413305 
665.000000	 92.448039 
664.000000	 92.497928 
663.000000	 92.560609 
662.000000	 92.618393 
661.000000	 92.659534 
660.000000	 92.686655 
659.000000	 92.708959 
658.000000	 92.735790 
657.000000	 92.771364 
656.000000	 92.805705 
655.000000	 92.821753 
654.000000	 92.817063 
653.000000	 92.808403 
652.000000	 92.808868 
651.000000	 92.813031 
650.000000	 92.811277 

