PE IR                   SPECTRUM    ASCII       PEDS        1.60        
  -1
~SP.SP
22/12/06
16:30:03.00
23/01/09
15:12:42.00
Administrator

650.000000
4









FRONTIER FT-IR,CPU32 MAIN 00.09.9951 07-SEPTEMBER-2011 11:49:41
MIR TGS
MIR
OPTKBR
90694
0.200000

4.000000
STRONG
RATIO
SPECTRUM
MAGNITUDE
MIRACLE ATR
DOUBLE

COMBINED


0


#HDR
-1
-1
#GR
CM-1
%T
0.00002384185791015625
0.0
4000.000000
-1.000000
3351
8
81.379953
63.878332
#DATA
4000.000000	81.336219 
3999.000000	81.336517 
3998.000000	81.334972 
3997.000000	81.331658 
3996.000000	81.327545 
3995.000000	81.323719 
3994.000000	81.320612 
3993.000000	81.318031 
3992.000000	81.315856 
3991.000000	81.314575 
3990.000000	81.314756 
3989.000000	81.316184 
3988.000000	81.317858 
3987.000000	81.318813 
3986.000000	81.318828 
3985.000000	81.318285 
3984.000000	81.317550 
3983.000000	81.316728 
3982.000000	81.315905 
3981.000000	81.315167 
3980.000000	81.314153 
3979.000000	81.312045 
3978.000000	81.308338 
3977.000000	81.303550 
3976.000000	81.299003 
3975.000000	81.295958 
3974.000000	81.294996 
3973.000000	81.295812 
3972.000000	81.297298 
3971.000000	81.298107 
3970.000000	81.297681 
3969.000000	81.296623 
3968.000000	81.295946 
3967.000000	81.295846 
3966.000000	81.295309 
3965.000000	81.292919 
3964.000000	81.287967 
3963.000000	81.281080 
3962.000000	81.274094 
3961.000000	81.268934 
3960.000000	81.266596 
3959.000000	81.266991 
3958.000000	81.269384 
3957.000000	81.272698 
3956.000000	81.275717 
3955.000000	81.277580 
3954.000000	81.278121 
3953.000000	81.277446 
3952.000000	81.275116 
3951.000000	81.270388 
3950.000000	81.263481 
3949.000000	81.256200 
3948.000000	81.250670 
3947.000000	81.247416 
3946.000000	81.245092 
3945.000000	81.242326 
3944.000000	81.239764 
3943.000000	81.239339 
3942.000000	81.241377 
3941.000000	81.243564 
3940.000000	81.243383 
3939.000000	81.240566 
3938.000000	81.237131 
3937.000000	81.234971 
3936.000000	81.233864 
3935.000000	81.232447 
3934.000000	81.230501 
3933.000000	81.229398 
3932.000000	81.229741 
3931.000000	81.230299 
3930.000000	81.230345 
3929.000000	81.230847 
3928.000000	81.232057 
3927.000000	81.231581 
3926.000000	81.227245 
3925.000000	81.220274 
3924.000000	81.213508 
3923.000000	81.207946 
3922.000000	81.202975 
3921.000000	81.198387 
3920.000000	81.194376 
3919.000000	81.190474 
3918.000000	81.186882 
3917.000000	81.185940 
3916.000000	81.189822 
3915.000000	81.197160 
3914.000000	81.203876 
3913.000000	81.206606 
3912.000000	81.204703 
3911.000000	81.199033 
3910.000000	81.191206 
3909.000000	81.183563 
3908.000000	81.178377 
3907.000000	81.175903 
3906.000000	81.173884 
3905.000000	81.170087 
3904.000000	81.164089 
3903.000000	81.156664 
3902.000000	81.148769 
3901.000000	81.141698 
3900.000000	81.137190 
3899.000000	81.135949 
3898.000000	81.136810 
3897.000000	81.138111 
3896.000000	81.139519 
3895.000000	81.141226 
3894.000000	81.142545 
3893.000000	81.141848 
3892.000000	81.138940 
3891.000000	81.135401 
3890.000000	81.132963 
3889.000000	81.131775 
3888.000000	81.130151 
3887.000000	81.127271 
3886.000000	81.124605 
3885.000000	81.123068 
3884.000000	81.121811 
3883.000000	81.119864 
3882.000000	81.117323 
3881.000000	81.115241 
3880.000000	81.114236 
3879.000000	81.113883 
3878.000000	81.113560 
3877.000000	81.112773 
3876.000000	81.111286 
3875.000000	81.109434 
3874.000000	81.107820 
3873.000000	81.106559 
3872.000000	81.105219 
3871.000000	81.103725 
3870.000000	81.102612 
3869.000000	81.102070 
3868.000000	81.101715 
3867.000000	81.101091 
3866.000000	81.100265 
3865.000000	81.099726 
3864.000000	81.099663 
3863.000000	81.099693 
3862.000000	81.099443 
3861.000000	81.098910 
3860.000000	81.098293 
3859.000000	81.097791 
3858.000000	81.097619 
3857.000000	81.097898 
3856.000000	81.098110 
3855.000000	81.097601 
3854.000000	81.096917 
3853.000000	81.096669 
3852.000000	81.096196 
3851.000000	81.095153 
3850.000000	81.093992 
3849.000000	81.093301 
3848.000000	81.093199 
3847.000000	81.093121 
3846.000000	81.092452 
3845.000000	81.090953 
3844.000000	81.088907 
3843.000000	81.086869 
3842.000000	81.085301 
3841.000000	81.084231 
3840.000000	81.083669 
3839.000000	81.083458 
3838.000000	81.082943 
3837.000000	81.081968 
3836.000000	81.081803 
3835.000000	81.083772 
3834.000000	81.087431 
3833.000000	81.091028 
3832.000000	81.093358 
3831.000000	81.094305 
3830.000000	81.094301 
3829.000000	81.093408 
3828.000000	81.091314 
3827.000000	81.088422 
3826.000000	81.086117 
3825.000000	81.085339 
3824.000000	81.085414 
3823.000000	81.084785 
3822.000000	81.084111 
3821.000000	81.085092 
3820.000000	81.087056 
3819.000000	81.088288 
3818.000000	81.087543 
3817.000000	81.085831 
3816.000000	81.085803 
3815.000000	81.086963 
3814.000000	81.086245 
3813.000000	81.082724 
3812.000000	81.078342 
3811.000000	81.075686 
3810.000000	81.075124 
3809.000000	81.074568 
3808.000000	81.072609 
3807.000000	81.070486 
3806.000000	81.069894 
3805.000000	81.071249 
3804.000000	81.073335 
3803.000000	81.074424 
3802.000000	81.075016 
3801.000000	81.075619 
3800.000000	81.075196 
3799.000000	81.073716 
3798.000000	81.072209 
3797.000000	81.071805 
3796.000000	81.072441 
3795.000000	81.072522 
3794.000000	81.070931 
3793.000000	81.068349 
3792.000000	81.066214 
3791.000000	81.064781 
3790.000000	81.063072 
3789.000000	81.060434 
3788.000000	81.057188 
3787.000000	81.053861 
3786.000000	81.050711 
3785.000000	81.048154 
3784.000000	81.046725 
3783.000000	81.046245 
3782.000000	81.045865 
3781.000000	81.045066 
3780.000000	81.044405 
3779.000000	81.044359 
3778.000000	81.044310 
3777.000000	81.043097 
3776.000000	81.040512 
3775.000000	81.037439 
3774.000000	81.034825 
3773.000000	81.032804 
3772.000000	81.031041 
3771.000000	81.029472 
3770.000000	81.028265 
3769.000000	81.027179 
3768.000000	81.025493 
3767.000000	81.022777 
3766.000000	81.019494 
3765.000000	81.016718 
3764.000000	81.014945 
3763.000000	81.013418 
3762.000000	81.011070 
3761.000000	81.007873 
3760.000000	81.004492 
3759.000000	81.000602 
3758.000000	80.995687 
3757.000000	80.990865 
3756.000000	80.987469 
3755.000000	80.984757 
3754.000000	80.981330 
3753.000000	80.979043 
3752.000000	80.981015 
3751.000000	80.983970 
3750.000000	80.980850 
3749.000000	80.972684 
3748.000000	80.967420 
3747.000000	80.964463 
3746.000000	80.955222 
3745.000000	80.945328 
3744.000000	80.945420 
3743.000000	80.947631 
3742.000000	80.941108 
3741.000000	80.927851 
3740.000000	80.917478 
3739.000000	80.912891 
3738.000000	80.903906 
3737.000000	80.883296 
3736.000000	80.861781 
3735.000000	80.855697 
3734.000000	80.866345 
3733.000000	80.882839 
3732.000000	80.896430 
3731.000000	80.904444 
3730.000000	80.905277 
3729.000000	80.894848 
3728.000000	80.871392 
3727.000000	80.843025 
3726.000000	80.821456 
3725.000000	80.810158 
3724.000000	80.804795 
3723.000000	80.800377 
3722.000000	80.794935 
3721.000000	80.789037 
3720.000000	80.783920 
3719.000000	80.777847 
3718.000000	80.767365 
3717.000000	80.751025 
3716.000000	80.729337 
3715.000000	80.704465 
3714.000000	80.681581 
3713.000000	80.668251 
3712.000000	80.666021 
3711.000000	80.664763 
3710.000000	80.653278 
3709.000000	80.628924 
3708.000000	80.595854 
3707.000000	80.560879 
3706.000000	80.529598 
3705.000000	80.503331 
3704.000000	80.478645 
3703.000000	80.450758 
3702.000000	80.417941 
3701.000000	80.382875 
3700.000000	80.349905 
3699.000000	80.320020 
3698.000000	80.291157 
3697.000000	80.263038 
3696.000000	80.235609 
3695.000000	80.205635 
3694.000000	80.171293 
3693.000000	80.137068 
3692.000000	80.109702 
3691.000000	80.089533 
3690.000000	80.072041 
3689.000000	80.055935 
3688.000000	80.042870 
3687.000000	80.031983 
3686.000000	80.019837 
3685.000000	80.006073 
3684.000000	79.996700 
3683.000000	79.996344 
3682.000000	79.997068 
3681.000000	79.985950 
3680.000000	79.960832 
3679.000000	79.929131 
3678.000000	79.890859 
3677.000000	79.845620 
3676.000000	79.813576 
3675.000000	79.807801 
3674.000000	79.814043 
3673.000000	79.814027 
3672.000000	79.798416 
3671.000000	79.775701 
3670.000000	79.763797 
3669.000000	79.761877 
3668.000000	79.758759 
3667.000000	79.752072 
3666.000000	79.744250 
3665.000000	79.735926 
3664.000000	79.725801 
3663.000000	79.713003 
3662.000000	79.698853 
3661.000000	79.687090 
3660.000000	79.680704 
3659.000000	79.678522 
3658.000000	79.676231 
3657.000000	79.675036 
3656.000000	79.680107 
3655.000000	79.691765 
3654.000000	79.705884 
3653.000000	79.716070 
3652.000000	79.718076 
3651.000000	79.717584 
3650.000000	79.723875 
3649.000000	79.735805 
3648.000000	79.747308 
3647.000000	79.757075 
3646.000000	79.766799 
3645.000000	79.777787 
3644.000000	79.791365 
3643.000000	79.809060 
3642.000000	79.829926 
3641.000000	79.847942 
3640.000000	79.856238 
3639.000000	79.855976 
3638.000000	79.855272 
3637.000000	79.858917 
3636.000000	79.863154 
3635.000000	79.864437 
3634.000000	79.867486 
3633.000000	79.878960 
3632.000000	79.895695 
3631.000000	79.902945 
3630.000000	79.898251 
3629.000000	79.897561 
3628.000000	79.903649 
3627.000000	79.907809 
3626.000000	79.909413 
3625.000000	79.911782 
3624.000000	79.916581 
3623.000000	79.921939 
3622.000000	79.923977 
3621.000000	79.922517 
3620.000000	79.923251 
3619.000000	79.930793 
3618.000000	79.944044 
3617.000000	79.960285 
3616.000000	79.976362 
3615.000000	79.989332 
3614.000000	80.000302 
3613.000000	80.012723 
3612.000000	80.026409 
3611.000000	80.037269 
3610.000000	80.044032 
3609.000000	80.051937 
3608.000000	80.066270 
3607.000000	80.085207 
3606.000000	80.103496 
3605.000000	80.119388 
3604.000000	80.134452 
3603.000000	80.149515 
3602.000000	80.163000 
3601.000000	80.173439 
3600.000000	80.180589 
3599.000000	80.184986 
3598.000000	80.187904 
3597.000000	80.191056 
3596.000000	80.195575 
3595.000000	80.202277 
3594.000000	80.211474 
3593.000000	80.222497 
3592.000000	80.234151 
3591.000000	80.243484 
3590.000000	80.246001 
3589.000000	80.240616 
3588.000000	80.233476 
3587.000000	80.232117 
3586.000000	80.238295 
3585.000000	80.249104 
3584.000000	80.260105 
3583.000000	80.267378 
3582.000000	80.269325 
3581.000000	80.267606 
3580.000000	80.265640 
3579.000000	80.265888 
3578.000000	80.268887 
3577.000000	80.274068 
3576.000000	80.280772 
3575.000000	80.288190 
3574.000000	80.295114 
3573.000000	80.300148 
3572.000000	80.302400 
3571.000000	80.301074 
3570.000000	80.294667 
3569.000000	80.283019 
3568.000000	80.270969 
3567.000000	80.265788 
3566.000000	80.270042 
3565.000000	80.280686 
3564.000000	80.292651 
3563.000000	80.301990 
3562.000000	80.307237 
3561.000000	80.309305 
3560.000000	80.310390 
3559.000000	80.312244 
3558.000000	80.315344 
3557.000000	80.319243 
3556.000000	80.323115 
3555.000000	80.325986 
3554.000000	80.327255 
3553.000000	80.327430 
3552.000000	80.327725 
3551.000000	80.328609 
3550.000000	80.328925 
3549.000000	80.326662 
3548.000000	80.320781 
3547.000000	80.312714 
3546.000000	80.306063 
3545.000000	80.304216 
3544.000000	80.308146 
3543.000000	80.316077 
3542.000000	80.325017 
3541.000000	80.332712 
3540.000000	80.338224 
3539.000000	80.341528 
3538.000000	80.343402 
3537.000000	80.345597 
3536.000000	80.349810 
3535.000000	80.356102 
3534.000000	80.362567 
3533.000000	80.366950 
3532.000000	80.368423 
3531.000000	80.367800 
3530.000000	80.366601 
3529.000000	80.365898 
3528.000000	80.365603 
3527.000000	80.364510 
3526.000000	80.361659 
3525.000000	80.358057 
3524.000000	80.356682 
3523.000000	80.359723 
3522.000000	80.366315 
3521.000000	80.373408 
3520.000000	80.378519 
3519.000000	80.381431 
3518.000000	80.383316 
3517.000000	80.384992 
3516.000000	80.386382 
3515.000000	80.387281 
3514.000000	80.387852 
3513.000000	80.388388 
3512.000000	80.389189 
3511.000000	80.390796 
3510.000000	80.393779 
3509.000000	80.398012 
3508.000000	80.402421 
3507.000000	80.405773 
3506.000000	80.407678 
3505.000000	80.408692 
3504.000000	80.409727 
3503.000000	80.411307 
3502.000000	80.413413 
3501.000000	80.415795 
3500.000000	80.418186 
3499.000000	80.420338 
3498.000000	80.422121 
3497.000000	80.423637 
3496.000000	80.425148 
3495.000000	80.426839 
3494.000000	80.428683 
3493.000000	80.430538 
3492.000000	80.432305 
3491.000000	80.433984 
3490.000000	80.435623 
3489.000000	80.437261 
3488.000000	80.438916 
3487.000000	80.440599 
3486.000000	80.442311 
3485.000000	80.444044 
3484.000000	80.445788 
3483.000000	80.447528 
3482.000000	80.449248 
3481.000000	80.450936 
3480.000000	80.452592 
3479.000000	80.454220 
3478.000000	80.455829 
3477.000000	80.457421 
3476.000000	80.459003 
3475.000000	80.460583 
3474.000000	80.462169 
3473.000000	80.463759 
3472.000000	80.465342 
3471.000000	80.466900 
3470.000000	80.468425 
3469.000000	80.469912 
3468.000000	80.471367 
3467.000000	80.472821 
3466.000000	80.474321 
3465.000000	80.475904 
3464.000000	80.477551 
3463.000000	80.479199 
3462.000000	80.480791 
3461.000000	80.482312 
3460.000000	80.483807 
3459.000000	80.485355 
3458.000000	80.486988 
3457.000000	80.488666 
3456.000000	80.490308 
3455.000000	80.491864 
3454.000000	80.493363 
3453.000000	80.494891 
3452.000000	80.496561 
3451.000000	80.498421 
3450.000000	80.500368 
3449.000000	80.502172 
3448.000000	80.503700 
3447.000000	80.505136 
3446.000000	80.506863 
3445.000000	80.509015 
3444.000000	80.511223 
3443.000000	80.512997 
3442.000000	80.514246 
3441.000000	80.515259 
3440.000000	80.516216 
3439.000000	80.517004 
3438.000000	80.517553 
3437.000000	80.518094 
3436.000000	80.518957 
3435.000000	80.520214 
3434.000000	80.521595 
3433.000000	80.522716 
3432.000000	80.523436 
3431.000000	80.523985 
3430.000000	80.524763 
3429.000000	80.525977 
3428.000000	80.527566 
3427.000000	80.529420 
3426.000000	80.531514 
3425.000000	80.533714 
3424.000000	80.535548 
3423.000000	80.536503 
3422.000000	80.536560 
3421.000000	80.536294 
3420.000000	80.536416 
3419.000000	80.537266 
3418.000000	80.538759 
3417.000000	80.540569 
3416.000000	80.542223 
3415.000000	80.543341 
3414.000000	80.543995 
3413.000000	80.544704 
3412.000000	80.545842 
3411.000000	80.547122 
3410.000000	80.547942 
3409.000000	80.548141 
3408.000000	80.548171 
3407.000000	80.548515 
3406.000000	80.549214 
3405.000000	80.549966 
3404.000000	80.550433 
3403.000000	80.550412 
3402.000000	80.549958 
3401.000000	80.549500 
3400.000000	80.549698 
3399.000000	80.550967 
3398.000000	80.553171 
3397.000000	80.555668 
3396.000000	80.557657 
3395.000000	80.558622 
3394.000000	80.558546 
3393.000000	80.558014 
3392.000000	80.557976 
3391.000000	80.559062 
3390.000000	80.561187 
3389.000000	80.563634 
3388.000000	80.565635 
3387.000000	80.566937 
3386.000000	80.567821 
3385.000000	80.568727 
3384.000000	80.569818 
3383.000000	80.570907 
3382.000000	80.571769 
3381.000000	80.572431 
3380.000000	80.573125 
3379.000000	80.574007 
3378.000000	80.574970 
3377.000000	80.575715 
3376.000000	80.576025 
3375.000000	80.575964 
3374.000000	80.575832 
3373.000000	80.575891 
3372.000000	80.576129 
3371.000000	80.576359 
3370.000000	80.576489 
3369.000000	80.576646 
3368.000000	80.577012 
3367.000000	80.577613 
3366.000000	80.578300 
3365.000000	80.578928 
3364.000000	80.579519 
3363.000000	80.580217 
3362.000000	80.581026 
3361.000000	80.581574 
3360.000000	80.581335 
3359.000000	80.580250 
3358.000000	80.579041 
3357.000000	80.578601 
3356.000000	80.578946 
3355.000000	80.578924 
3354.000000	80.577294 
3353.000000	80.574047 
3352.000000	80.570681 
3351.000000	80.568970 
3350.000000	80.569563 
3349.000000	80.571773 
3348.000000	80.574143 
3347.000000	80.575461 
3346.000000	80.575378 
3345.000000	80.574268 
3344.000000	80.572681 
3343.000000	80.570778 
3342.000000	80.568329 
3341.000000	80.565270 
3340.000000	80.561993 
3339.000000	80.558955 
3338.000000	80.556291 
3337.000000	80.554071 
3336.000000	80.552789 
3335.000000	80.553100 
3334.000000	80.554870 
3333.000000	80.556766 
3332.000000	80.557247 
3331.000000	80.555903 
3330.000000	80.553517 
3329.000000	80.550957 
3328.000000	80.548264 
3327.000000	80.545110 
3326.000000	80.541787 
3325.000000	80.539236 
3324.000000	80.538062 
3323.000000	80.537737 
3322.000000	80.536924 
3321.000000	80.534643 
3320.000000	80.531029 
3319.000000	80.527024 
3318.000000	80.523492 
3317.000000	80.520730 
3316.000000	80.518552 
3315.000000	80.516451 
3314.000000	80.513709 
3313.000000	80.509810 
3312.000000	80.505010 
3311.000000	80.500331 
3310.000000	80.496670 
3309.000000	80.493971 
3308.000000	80.491449 
3307.000000	80.488440 
3306.000000	80.484869 
3305.000000	80.481034 
3304.000000	80.477376 
3303.000000	80.474461 
3302.000000	80.472718 
3301.000000	80.471942 
3300.000000	80.471107 
3299.000000	80.469057 
3298.000000	80.465409 
3297.000000	80.460674 
3296.000000	80.455700 
3295.000000	80.451001 
3294.000000	80.446627 
3293.000000	80.442516 
3292.000000	80.438787 
3291.000000	80.435655 
3290.000000	80.433045 
3289.000000	80.430381 
3288.000000	80.426968 
3287.000000	80.422667 
3286.000000	80.418079 
3285.000000	80.414008 
3284.000000	80.410722 
3283.000000	80.407888 
3282.000000	80.405088 
3281.000000	80.402155 
3280.000000	80.398913 
3279.000000	80.394937 
3278.000000	80.389853 
3277.000000	80.383863 
3276.000000	80.377809 
3275.000000	80.372603 
3274.000000	80.368634 
3273.000000	80.365668 
3272.000000	80.363088 
3271.000000	80.360263 
3270.000000	80.356901 
3269.000000	80.353262 
3268.000000	80.349968 
3267.000000	80.347364 
3266.000000	80.345029 
3265.000000	80.342119 
3264.000000	80.338272 
3263.000000	80.334042 
3262.000000	80.330302 
3261.000000	80.327211 
3260.000000	80.324025 
3259.000000	80.319994 
3258.000000	80.315212 
3257.000000	80.310454 
3256.000000	80.306278 
3255.000000	80.302551 
3254.000000	80.298849 
3253.000000	80.295071 
3252.000000	80.291455 
3251.000000	80.288137 
3250.000000	80.284972 
3249.000000	80.281914 
3248.000000	80.279267 
3247.000000	80.277217 
3246.000000	80.275215 
3245.000000	80.272307 
3244.000000	80.268154 
3243.000000	80.263244 
3242.000000	80.258026 
3241.000000	80.252398 
3240.000000	80.246403 
3239.000000	80.240931 
3238.000000	80.236966 
3237.000000	80.234318 
3236.000000	80.231663 
3235.000000	80.228056 
3234.000000	80.223973 
3233.000000	80.220454 
3232.000000	80.217777 
3231.000000	80.215366 
3230.000000	80.212623 
3229.000000	80.209414 
3228.000000	80.205915 
3227.000000	80.202383 
3226.000000	80.199030 
3225.000000	80.195883 
3224.000000	80.192769 
3223.000000	80.189588 
3222.000000	80.186511 
3221.000000	80.183718 
3220.000000	80.181004 
3219.000000	80.177871 
3218.000000	80.174103 
3217.000000	80.170052 
3216.000000	80.166360 
3215.000000	80.163361 
3214.000000	80.160845 
3213.000000	80.158264 
3212.000000	80.155204 
3211.000000	80.151652 
3210.000000	80.147877 
3209.000000	80.144190 
3208.000000	80.140783 
3207.000000	80.137724 
3206.000000	80.134952 
3205.000000	80.132237 
3204.000000	80.129303 
3203.000000	80.126070 
3202.000000	80.122730 
3201.000000	80.119573 
3200.000000	80.116749 
3199.000000	80.114207 
3198.000000	80.111813 
3197.000000	80.109452 
3196.000000	80.107044 
3195.000000	80.104557 
3194.000000	80.102025 
3193.000000	80.099507 
3192.000000	80.097001 
3191.000000	80.094431 
3190.000000	80.091734 
3189.000000	80.088939 
3188.000000	80.086160 
3187.000000	80.083503 
3186.000000	80.080983 
3185.000000	80.078528 
3184.000000	80.076036 
3183.000000	80.073462 
3182.000000	80.070839 
3181.000000	80.068257 
3180.000000	80.065789 
3179.000000	80.063435 
3178.000000	80.061125 
3177.000000	80.058798 
3176.000000	80.056459 
3175.000000	80.054139 
3174.000000	80.051822 
3173.000000	80.049462 
3172.000000	80.047059 
3171.000000	80.044661 
3170.000000	80.042289 
3169.000000	80.039922 
3168.000000	80.037563 
3167.000000	80.035259 
3166.000000	80.033040 
3165.000000	80.030867 
3164.000000	80.028660 
3163.000000	80.026388 
3162.000000	80.024080 
3161.000000	80.021802 
3160.000000	80.019581 
3159.000000	80.017401 
3158.000000	80.015211 
3157.000000	80.012951 
3156.000000	80.010585 
3155.000000	80.008162 
3154.000000	80.005837 
3153.000000	80.003724 
3152.000000	80.001807 
3151.000000	79.999980 
3150.000000	79.998167 
3149.000000	79.996368 
3148.000000	79.994576 
3147.000000	79.992743 
3146.000000	79.990841 
3145.000000	79.988930 
3144.000000	79.987140 
3143.000000	79.985530 
3142.000000	79.983989 
3141.000000	79.982339 
3140.000000	79.980572 
3139.000000	79.978929 
3138.000000	79.977646 
3137.000000	79.976681 
3136.000000	79.975726 
3135.000000	79.974510 
3134.000000	79.972996 
3133.000000	79.971292 
3132.000000	79.969539 
3131.000000	79.967884 
3130.000000	79.966517 
3129.000000	79.965559 
3128.000000	79.964960 
3127.000000	79.964528 
3126.000000	79.964026 
3125.000000	79.963257 
3124.000000	79.962159 
3123.000000	79.960863 
3122.000000	79.959599 
3121.000000	79.958451 
3120.000000	79.957291 
3119.000000	79.955978 
3118.000000	79.954596 
3117.000000	79.953451 
3116.000000	79.952829 
3115.000000	79.952806 
3114.000000	79.953161 
3113.000000	79.953412 
3112.000000	79.953152 
3111.000000	79.952332 
3110.000000	79.951281 
3109.000000	79.950532 
3108.000000	79.950435 
3107.000000	79.950889 
3106.000000	79.951352 
3105.000000	79.951322 
3104.000000	79.950700 
3103.000000	79.949721 
3102.000000	79.948670 
3101.000000	79.947723 
3100.000000	79.947090 
3099.000000	79.947011 
3098.000000	79.947333 
3097.000000	79.947323 
3096.000000	79.946343 
3095.000000	79.944509 
3094.000000	79.942058 
3093.000000	79.938521 
3092.000000	79.933830 
3091.000000	79.930007 
3090.000000	79.929931 
3089.000000	79.933854 
3088.000000	79.938365 
3087.000000	79.939622 
3086.000000	79.936839 
3085.000000	79.932300 
3084.000000	79.929030 
3083.000000	79.928646 
3082.000000	79.930313 
3081.000000	79.931421 
3080.000000	79.930387 
3079.000000	79.928848 
3078.000000	79.929856 
3077.000000	79.933871 
3076.000000	79.937959 
3075.000000	79.938994 
3074.000000	79.936329 
3073.000000	79.931861 
3072.000000	79.929168 
3071.000000	79.931797 
3070.000000	79.939739 
3069.000000	79.947384 
3068.000000	79.947719 
3067.000000	79.939574 
3066.000000	79.929081 
3065.000000	79.923715 
3064.000000	79.926391 
3063.000000	79.934849 
3062.000000	79.943597 
3061.000000	79.946211 
3060.000000	79.939674 
3059.000000	79.928386 
3058.000000	79.920939 
3057.000000	79.920692 
3056.000000	79.922001 
3055.000000	79.918056 
3054.000000	79.909484 
3053.000000	79.902057 
3052.000000	79.897966 
3051.000000	79.893215 
3050.000000	79.883435 
3049.000000	79.869095 
3048.000000	79.854359 
3047.000000	79.842712 
3046.000000	79.834450 
3045.000000	79.827219 
3044.000000	79.818268 
3043.000000	79.806585 
3042.000000	79.792999 
3041.000000	79.778400 
3040.000000	79.762594 
3039.000000	79.744892 
3038.000000	79.724818 
3037.000000	79.702173 
3036.000000	79.677513 
3035.000000	79.652729 
3034.000000	79.629550 
3033.000000	79.606709 
3032.000000	79.580717 
3031.000000	79.550560 
3030.000000	79.518818 
3029.000000	79.487050 
3028.000000	79.453132 
3027.000000	79.414448 
3026.000000	79.371433 
3025.000000	79.326298 
3024.000000	79.279848 
3023.000000	79.231591 
3022.000000	79.182028 
3021.000000	79.132656 
3020.000000	79.083926 
3019.000000	79.034670 
3018.000000	78.983455 
3017.000000	78.929458 
3016.000000	78.872397 
3015.000000	78.812897 
3014.000000	78.752849 
3013.000000	78.694275 
3012.000000	78.637362 
3011.000000	78.579966 
3010.000000	78.519357 
3009.000000	78.454733 
3008.000000	78.388260 
3007.000000	78.323439 
3006.000000	78.262093 
3005.000000	78.203427 
3004.000000	78.146109 
3003.000000	78.089728 
3002.000000	78.033273 
3001.000000	77.974472 
3000.000000	77.913465 
2999.000000	77.855997 
2998.000000	77.809630 
2997.000000	77.776590 
2996.000000	77.752103 
2995.000000	77.727593 
2994.000000	77.691655 
2993.000000	77.630860 
2992.000000	77.539340 
2991.000000	77.431854 
2990.000000	77.341050 
2989.000000	77.295054 
2988.000000	77.299190 
2987.000000	77.340031 
2986.000000	77.400788 
2985.000000	77.468344 
2984.000000	77.530411 
2983.000000	77.576857 
2982.000000	77.606525 
2981.000000	77.627402 
2980.000000	77.647359 
2979.000000	77.667178 
2978.000000	77.682863 
2977.000000	77.690868 
2976.000000	77.689864 
2975.000000	77.680944 
2974.000000	77.668249 
2973.000000	77.657142 
2972.000000	77.649830 
2971.000000	77.644204 
2970.000000	77.638167 
2969.000000	77.633715 
2968.000000	77.635793 
2967.000000	77.648250 
2966.000000	77.671177 
2965.000000	77.700431 
2964.000000	77.728953 
2963.000000	77.750346 
2962.000000	77.762965 
2961.000000	77.770623 
2960.000000	77.779214 
2959.000000	77.792971 
2958.000000	77.813205 
2957.000000	77.838798 
2956.000000	77.867383 
2955.000000	77.897171 
2954.000000	77.928309 
2953.000000	77.961983 
2952.000000	77.998263 
2951.000000	78.035267 
2950.000000	78.069901 
2949.000000	78.098519 
2948.000000	78.117687 
2947.000000	78.126229 
2946.000000	78.127642 
2945.000000	78.129538 
2944.000000	78.139160 
2943.000000	78.159304 
2942.000000	78.187490 
2941.000000	78.217537 
2940.000000	78.242807 
2939.000000	78.260562 
2938.000000	78.273388 
2937.000000	78.285331 
2936.000000	78.297004 
2935.000000	78.305437 
2934.000000	78.308256 
2933.000000	78.306237 
2932.000000	78.301613 
2931.000000	78.295370 
2930.000000	78.286946 
2929.000000	78.275543 
2928.000000	78.261036 
2927.000000	78.244261 
2926.000000	78.227050 
2925.000000	78.211550 
2924.000000	78.198856 
2923.000000	78.188262 
2922.000000	78.178172 
2921.000000	78.168130 
2920.000000	78.159878 
2919.000000	78.155555 
2918.000000	78.153827 
2917.000000	78.148274 
2916.000000	78.131319 
2915.000000	78.100704 
2914.000000	78.061963 
2913.000000	78.024739 
2912.000000	77.996933 
2911.000000	77.980949 
2910.000000	77.972931 
2909.000000	77.965369 
2908.000000	77.953191 
2907.000000	77.937989 
2906.000000	77.923575 
2905.000000	77.906965 
2904.000000	77.879283 
2903.000000	77.840491 
2902.000000	77.809556 
2901.000000	77.812505 
2900.000000	77.858667 
2899.000000	77.930793 
2898.000000	77.998540 
2897.000000	78.041712 
2896.000000	78.060615 
2895.000000	78.068473 
2894.000000	78.078360 
2893.000000	78.095150 
2892.000000	78.115801 
2891.000000	78.134817 
2890.000000	78.149457 
2889.000000	78.160261 
2888.000000	78.168221 
2887.000000	78.173743 
2886.000000	78.178967 
2885.000000	78.188987 
2884.000000	78.208884 
2883.000000	78.239874 
2882.000000	78.279184 
2881.000000	78.323026 
2880.000000	78.368649 
2879.000000	78.414136 
2878.000000	78.457543 
2877.000000	78.496667 
2876.000000	78.529146 
2875.000000	78.553010 
2874.000000	78.568191 
2873.000000	78.577961 
2872.000000	78.588274 
2871.000000	78.604555 
2870.000000	78.628609 
2869.000000	78.658252 
2868.000000	78.689967 
2867.000000	78.722121 
2866.000000	78.755926 
2865.000000	78.793422 
2864.000000	78.834751 
2863.000000	78.877614 
2862.000000	78.919463 
2861.000000	78.959880 
2860.000000	79.000417 
2859.000000	79.041982 
2858.000000	79.082676 
2857.000000	79.119069 
2856.000000	79.149423 
2855.000000	79.174757 
2854.000000	79.197917 
2853.000000	79.222269 
2852.000000	79.250193 
2851.000000	79.281350 
2850.000000	79.311846 
2849.000000	79.336480 
2848.000000	79.353554 
2847.000000	79.367205 
2846.000000	79.383514 
2845.000000	79.404390 
2844.000000	79.426565 
2843.000000	79.446161 
2842.000000	79.462199 
2841.000000	79.475598 
2840.000000	79.487203 
2839.000000	79.498109 
2838.000000	79.510268 
2837.000000	79.524738 
2836.000000	79.539808 
2835.000000	79.552367 
2834.000000	79.561150 
2833.000000	79.567667 
2832.000000	79.574100 
2831.000000	79.581263 
2830.000000	79.588713 
2829.000000	79.595916 
2828.000000	79.602739 
2827.000000	79.609151 
2826.000000	79.614984 
2825.000000	79.620220 
2824.000000	79.625350 
2823.000000	79.631043 
2822.000000	79.637328 
2821.000000	79.643522 
2820.000000	79.649161 
2819.000000	79.654411 
2818.000000	79.659167 
2817.000000	79.662663 
2816.000000	79.664973 
2815.000000	79.668090 
2814.000000	79.673964 
2813.000000	79.681721 
2812.000000	79.688356 
2811.000000	79.692065 
2810.000000	79.693388 
2809.000000	79.693166 
2808.000000	79.691497 
2807.000000	79.689354 
2806.000000	79.689253 
2805.000000	79.692706 
2804.000000	79.697956 
2803.000000	79.701595 
2802.000000	79.702058 
2801.000000	79.700848 
2800.000000	79.700972 
2799.000000	79.704755 
2798.000000	79.712379 
2797.000000	79.721474 
2796.000000	79.728369 
2795.000000	79.730614 
2794.000000	79.728548 
2793.000000	79.724665 
2792.000000	79.721891 
2791.000000	79.722192 
2790.000000	79.725827 
2789.000000	79.731395 
2788.000000	79.736914 
2787.000000	79.741394 
2786.000000	79.745179 
2785.000000	79.748737 
2784.000000	79.751703 
2783.000000	79.753420 
2782.000000	79.753953 
2781.000000	79.754117 
2780.000000	79.754700 
2779.000000	79.755956 
2778.000000	79.757730 
2777.000000	79.759744 
2776.000000	79.761714 
2775.000000	79.763417 
2774.000000	79.764791 
2773.000000	79.765999 
2772.000000	79.767289 
2771.000000	79.768756 
2770.000000	79.770246 
2769.000000	79.771614 
2768.000000	79.773033 
2767.000000	79.774901 
2766.000000	79.777356 
2765.000000	79.779976 
2764.000000	79.782096 
2763.000000	79.783495 
2762.000000	79.784564 
2761.000000	79.785794 
2760.000000	79.787235 
2759.000000	79.788599 
2758.000000	79.789749 
2757.000000	79.790940 
2756.000000	79.792624 
2755.000000	79.795038 
2754.000000	79.797912 
2753.000000	79.800549 
2752.000000	79.802452 
2751.000000	79.803859 
2750.000000	79.805520 
2749.000000	79.807811 
2748.000000	79.810342 
2747.000000	79.812527 
2746.000000	79.814298 
2745.000000	79.816009 
2744.000000	79.817849 
2743.000000	79.819681 
2742.000000	79.821419 
2741.000000	79.823269 
2740.000000	79.825465 
2739.000000	79.827923 
2738.000000	79.830263 
2737.000000	79.832192 
2736.000000	79.833817 
2735.000000	79.835546 
2734.000000	79.837631 
2733.000000	79.839852 
2732.000000	79.841800 
2731.000000	79.843438 
2730.000000	79.845178 
2729.000000	79.847355 
2728.000000	79.849829 
2727.000000	79.852220 
2726.000000	79.854352 
2725.000000	79.856277 
2724.000000	79.858017 
2723.000000	79.859534 
2722.000000	79.860809 
2721.000000	79.861723 
2720.000000	79.862100 
2719.000000	79.862068 
2718.000000	79.862236 
2717.000000	79.863281 
2716.000000	79.865464 
2715.000000	79.868640 
2714.000000	79.872382 
2713.000000	79.875835 
2712.000000	79.877894 
2711.000000	79.878040 
2710.000000	79.876980 
2709.000000	79.876197 
2708.000000	79.876707 
2707.000000	79.878535 
2706.000000	79.881037 
2705.000000	79.883264 
2704.000000	79.884312 
2703.000000	79.883930 
2702.000000	79.882900 
2701.000000	79.882460 
2700.000000	79.883230 
2699.000000	79.884914 
2698.000000	79.886880 
2697.000000	79.888661 
2696.000000	79.889956 
2695.000000	79.890614 
2694.000000	79.890722 
2693.000000	79.890358 
2692.000000	79.889169 
2691.000000	79.886663 
2690.000000	79.883165 
2689.000000	79.880125 
2688.000000	79.878963 
2687.000000	79.879806 
2686.000000	79.881617 
2685.000000	79.883434 
2684.000000	79.885126 
2683.000000	79.886825 
2682.000000	79.888287 
2681.000000	79.889196 
2680.000000	79.889677 
2679.000000	79.890017 
2678.000000	79.890200 
2677.000000	79.890288 
2676.000000	79.890989 
2675.000000	79.892930 
2674.000000	79.895426 
2673.000000	79.896968 
2672.000000	79.897242 
2671.000000	79.897624 
2670.000000	79.899128 
2669.000000	79.900760 
2668.000000	79.900865 
2667.000000	79.899433 
2666.000000	79.898083 
2665.000000	79.898092 
2664.000000	79.899400 
2663.000000	79.901472 
2662.000000	79.904010 
2661.000000	79.906568 
2660.000000	79.908444 
2659.000000	79.909439 
2658.000000	79.910065 
2657.000000	79.910696 
2656.000000	79.910968 
2655.000000	79.910483 
2654.000000	79.909594 
2653.000000	79.909046 
2652.000000	79.909138 
2651.000000	79.909593 
2650.000000	79.910074 
2649.000000	79.910560 
2648.000000	79.911264 
2647.000000	79.912328 
2646.000000	79.913617 
2645.000000	79.914801 
2644.000000	79.915652 
2643.000000	79.916225 
2642.000000	79.916718 
2641.000000	79.917247 
2640.000000	79.917843 
2639.000000	79.918575 
2638.000000	79.919500 
2637.000000	79.920452 
2636.000000	79.921125 
2635.000000	79.921441 
2634.000000	79.921706 
2633.000000	79.922301 
2632.000000	79.923279 
2631.000000	79.924368 
2630.000000	79.925269 
2629.000000	79.925899 
2628.000000	79.926344 
2627.000000	79.926776 
2626.000000	79.927401 
2625.000000	79.928354 
2624.000000	79.929564 
2623.000000	79.930744 
2622.000000	79.931587 
2621.000000	79.931997 
2620.000000	79.932183 
2619.000000	79.932565 
2618.000000	79.933435 
2617.000000	79.934655 
2616.000000	79.935700 
2615.000000	79.936183 
2614.000000	79.936242 
2613.000000	79.936390 
2612.000000	79.936895 
2611.000000	79.937519 
2610.000000	79.937924 
2609.000000	79.938123 
2608.000000	79.938345 
2607.000000	79.938567 
2606.000000	79.938464 
2605.000000	79.937905 
2604.000000	79.937333 
2603.000000	79.937379 
2602.000000	79.938106 
2601.000000	79.938975 
2600.000000	79.939659 
2599.000000	79.940578 
2598.000000	79.942194 
2597.000000	79.944109 
2596.000000	79.945416 
2595.000000	79.945947 
2594.000000	79.946571 
2593.000000	79.948062 
2592.000000	79.950085 
2591.000000	79.951616 
2590.000000	79.952092 
2589.000000	79.951867 
2588.000000	79.951760 
2587.000000	79.952326 
2586.000000	79.953375 
2585.000000	79.954034 
2584.000000	79.953542 
2583.000000	79.952127 
2582.000000	79.950847 
2581.000000	79.950399 
2580.000000	79.950596 
2579.000000	79.951236 
2578.000000	79.952724 
2577.000000	79.955352 
2576.000000	79.958453 
2575.000000	79.960829 
2574.000000	79.961991 
2573.000000	79.962483 
2572.000000	79.963140 
2571.000000	79.964389 
2570.000000	79.966207 
2569.000000	79.968350 
2568.000000	79.970454 
2567.000000	79.972092 
2566.000000	79.973017 
2565.000000	79.973489 
2564.000000	79.974197 
2563.000000	79.975500 
2562.000000	79.976736 
2561.000000	79.976807 
2560.000000	79.975627 
2559.000000	79.974615 
2558.000000	79.975189 
2557.000000	79.977113 
2556.000000	79.978956 
2555.000000	79.980024 
2554.000000	79.980994 
2553.000000	79.982526 
2552.000000	79.984252 
2551.000000	79.985561 
2550.000000	79.986490 
2549.000000	79.987248 
2548.000000	79.987577 
2547.000000	79.987363 
2546.000000	79.987378 
2545.000000	79.988497 
2544.000000	79.990332 
2543.000000	79.991370 
2542.000000	79.990593 
2541.000000	79.988541 
2540.000000	79.986831 
2539.000000	79.986658 
2538.000000	79.987839 
2537.000000	79.989121 
2536.000000	79.989355 
2535.000000	79.988351 
2534.000000	79.986552 
2533.000000	79.984248 
2532.000000	79.981619 
2531.000000	79.979430 
2530.000000	79.978867 
2529.000000	79.980382 
2528.000000	79.983142 
2527.000000	79.985782 
2526.000000	79.987572 
2525.000000	79.988649 
2524.000000	79.989598 
2523.000000	79.991034 
2522.000000	79.993076 
2521.000000	79.994989 
2520.000000	79.995721 
2519.000000	79.994946 
2518.000000	79.993283 
2517.000000	79.991565 
2516.000000	79.990233 
2515.000000	79.989483 
2514.000000	79.989389 
2513.000000	79.989681 
2512.000000	79.989884 
2511.000000	79.989804 
2510.000000	79.989550 
2509.000000	79.989175 
2508.000000	79.988779 
2507.000000	79.988775 
2506.000000	79.989422 
2505.000000	79.990125 
2504.000000	79.989988 
2503.000000	79.989146 
2502.000000	79.988767 
2501.000000	79.989464 
2500.000000	79.990440 
2499.000000	79.990608 
2498.000000	79.989980 
2497.000000	79.989348 
2496.000000	79.989047 
2495.000000	79.988735 
2494.000000	79.988247 
2493.000000	79.987938 
2492.000000	79.988127 
2491.000000	79.988746 
2490.000000	79.989564 
2489.000000	79.990341 
2488.000000	79.990834 
2487.000000	79.991002 
2486.000000	79.991199 
2485.000000	79.991844 
2484.000000	79.992840 
2483.000000	79.993564 
2482.000000	79.993552 
2481.000000	79.992996 
2480.000000	79.992508 
2479.000000	79.992518 
2478.000000	79.993037 
2477.000000	79.993813 
2476.000000	79.994548 
2475.000000	79.995034 
2474.000000	79.995233 
2473.000000	79.995301 
2472.000000	79.995555 
2471.000000	79.996403 
2470.000000	79.998157 
2469.000000	80.000658 
2468.000000	80.003008 
2467.000000	80.004045 
2466.000000	80.003262 
2465.000000	80.001193 
2464.000000	79.999085 
2463.000000	79.997910 
2462.000000	79.997765 
2461.000000	79.998119 
2460.000000	79.998427 
2459.000000	79.998572 
2458.000000	79.998727 
2457.000000	79.998909 
2456.000000	79.998884 
2455.000000	79.998552 
2454.000000	79.998213 
2453.000000	79.998260 
2452.000000	79.998650 
2451.000000	79.998860 
2450.000000	79.998514 
2449.000000	79.998038 
2448.000000	79.998467 
2447.000000	80.000425 
2446.000000	80.003314 
2445.000000	80.005683 
2444.000000	80.006693 
2443.000000	80.006804 
2442.000000	80.006874 
2441.000000	80.006911 
2440.000000	80.006299 
2439.000000	80.005013 
2438.000000	80.003813 
2437.000000	80.003204 
2436.000000	80.002970 
2435.000000	80.002855 
2434.000000	80.003049 
2433.000000	80.003724 
2432.000000	80.004667 
2431.000000	80.005701 
2430.000000	80.006949 
2429.000000	80.008372 
2428.000000	80.009463 
2427.000000	80.009744 
2426.000000	80.009213 
2425.000000	80.008154 
2424.000000	80.006944 
2423.000000	80.006085 
2422.000000	80.005774 
2421.000000	80.005463 
2420.000000	80.004550 
2419.000000	80.003624 
2418.000000	80.004076 
2417.000000	80.006286 
2416.000000	80.009260 
2415.000000	80.011858 
2414.000000	80.013924 
2413.000000	80.015607 
2412.000000	80.016698 
2411.000000	80.017293 
2410.000000	80.017961 
2409.000000	80.018953 
2408.000000	80.019910 
2407.000000	80.020571 
2406.000000	80.021165 
2405.000000	80.021958 
2404.000000	80.022867 
2403.000000	80.023695 
2402.000000	80.024442 
2401.000000	80.025241 
2400.000000	80.026148 
2399.000000	80.027127 
2398.000000	80.028117 
2397.000000	80.029088 
2396.000000	80.030048 
2395.000000	80.031026 
2394.000000	80.032025 
2393.000000	80.033030 
2392.000000	80.034046 
2391.000000	80.035080 
2390.000000	80.036142 
2389.000000	80.037232 
2388.000000	80.038346 
2387.000000	80.039478 
2386.000000	80.040627 
2385.000000	80.041801 
2384.000000	80.043012 
2383.000000	80.044270 
2382.000000	80.045572 
2381.000000	80.046904 
2380.000000	80.048254 
2379.000000	80.049617 
2378.000000	80.050999 
2377.000000	80.052397 
2376.000000	80.053807 
2375.000000	80.055229 
2374.000000	80.056674 
2373.000000	80.058154 
2372.000000	80.059663 
2371.000000	80.061178 
2370.000000	80.062677 
2369.000000	80.064153 
2368.000000	80.065621 
2367.000000	80.067096 
2366.000000	80.068592 
2365.000000	80.070115 
2364.000000	80.071663 
2363.000000	80.073234 
2362.000000	80.074828 
2361.000000	80.076446 
2360.000000	80.078086 
2359.000000	80.079743 
2358.000000	80.081408 
2357.000000	80.083076 
2356.000000	80.084745 
2355.000000	80.086415 
2354.000000	80.088083 
2353.000000	80.089746 
2352.000000	80.091406 
2351.000000	80.093067 
2350.000000	80.094727 
2349.000000	80.096374 
2348.000000	80.097990 
2347.000000	80.099559 
2346.000000	80.101082 
2345.000000	80.102571 
2344.000000	80.104045 
2343.000000	80.105508 
2342.000000	80.106959 
2341.000000	80.108410 
2340.000000	80.109800 
2339.000000	80.111054 
2338.000000	80.112283 
2337.000000	80.113685 
2336.000000	80.115242 
2335.000000	80.116674 
2334.000000	80.117765 
2333.000000	80.118648 
2332.000000	80.119638 
2331.000000	80.120552 
2330.000000	80.120908 
2329.000000	80.120372 
2328.000000	80.119646 
2327.000000	80.119562 
2326.000000	80.120499 
2325.000000	80.122422 
2324.000000	80.124904 
2323.000000	80.127662 
2322.000000	80.130137 
2321.000000	80.132112 
2320.000000	80.133396 
2319.000000	80.133955 
2318.000000	80.133897 
2317.000000	80.133134 
2316.000000	80.131587 
2315.000000	80.129419 
2314.000000	80.127783 
2313.000000	80.127669 
2312.000000	80.128848 
2311.000000	80.129592 
2310.000000	80.128651 
2309.000000	80.126384 
2308.000000	80.123968 
2307.000000	80.121852 
2306.000000	80.119832 
2305.000000	80.118288 
2304.000000	80.118158 
2303.000000	80.119729 
2302.000000	80.121985 
2301.000000	80.123388 
2300.000000	80.123168 
2299.000000	80.121603 
2298.000000	80.119640 
2297.000000	80.118077 
2296.000000	80.117214 
2295.000000	80.116630 
2294.000000	80.115655 
2293.000000	80.113994 
2292.000000	80.112140 
2291.000000	80.110948 
2290.000000	80.110709 
2289.000000	80.110906 
2288.000000	80.110794 
2287.000000	80.110228 
2286.000000	80.109554 
2285.000000	80.109004 
2284.000000	80.108373 
2283.000000	80.107470 
2282.000000	80.106502 
2281.000000	80.105901 
2280.000000	80.105866 
2279.000000	80.106223 
2278.000000	80.106566 
2277.000000	80.106600 
2276.000000	80.106426 
2275.000000	80.106397 
2274.000000	80.106621 
2273.000000	80.106636 
2272.000000	80.105919 
2271.000000	80.104682 
2270.000000	80.103891 
2269.000000	80.104183 
2268.000000	80.105188 
2267.000000	80.105968 
2266.000000	80.105960 
2265.000000	80.105282 
2264.000000	80.104396 
2263.000000	80.103815 
2262.000000	80.103935 
2261.000000	80.104825 
2260.000000	80.106091 
2259.000000	80.107253 
2258.000000	80.108245 
2257.000000	80.109390 
2256.000000	80.110918 
2255.000000	80.112658 
2254.000000	80.114149 
2253.000000	80.115033 
2252.000000	80.115348 
2251.000000	80.115435 
2250.000000	80.115601 
2249.000000	80.115927 
2248.000000	80.116449 
2247.000000	80.117284 
2246.000000	80.118427 
2245.000000	80.119617 
2244.000000	80.120678 
2243.000000	80.121842 
2242.000000	80.123390 
2241.000000	80.125137 
2240.000000	80.126575 
2239.000000	80.127531 
2238.000000	80.128321 
2237.000000	80.129376 
2236.000000	80.130752 
2235.000000	80.132203 
2234.000000	80.133514 
2233.000000	80.134705 
2232.000000	80.135898 
2231.000000	80.137144 
2230.000000	80.138423 
2229.000000	80.139700 
2228.000000	80.140951 
2227.000000	80.142173 
2226.000000	80.143399 
2225.000000	80.144674 
2224.000000	80.146005 
2223.000000	80.147362 
2222.000000	80.148714 
2221.000000	80.150050 
2220.000000	80.151372 
2219.000000	80.152682 
2218.000000	80.153979 
2217.000000	80.155263 
2216.000000	80.156536 
2215.000000	80.157799 
2214.000000	80.159056 
2213.000000	80.160310 
2212.000000	80.161563 
2211.000000	80.162818 
2210.000000	80.164080 
2209.000000	80.165349 
2208.000000	80.166620 
2207.000000	80.167885 
2206.000000	80.169136 
2205.000000	80.170364 
2204.000000	80.171566 
2203.000000	80.172745 
2202.000000	80.173907 
2201.000000	80.175058 
2200.000000	80.176203 
2199.000000	80.177347 
2198.000000	80.178495 
2197.000000	80.179648 
2196.000000	80.180798 
2195.000000	80.181938 
2194.000000	80.183062 
2193.000000	80.184167 
2192.000000	80.185258 
2191.000000	80.186332 
2190.000000	80.187391 
2189.000000	80.188435 
2188.000000	80.189473 
2187.000000	80.190508 
2186.000000	80.191544 
2185.000000	80.192570 
2184.000000	80.193570 
2183.000000	80.194529 
2182.000000	80.195442 
2181.000000	80.196318 
2180.000000	80.197169 
2179.000000	80.198007 
2178.000000	80.198835 
2177.000000	80.199656 
2176.000000	80.200469 
2175.000000	80.201276 
2174.000000	80.202089 
2173.000000	80.202913 
2172.000000	80.203733 
2171.000000	80.204532 
2170.000000	80.205327 
2169.000000	80.206152 
2168.000000	80.207010 
2167.000000	80.207845 
2166.000000	80.208597 
2165.000000	80.209268 
2164.000000	80.209907 
2163.000000	80.210547 
2162.000000	80.211184 
2161.000000	80.211807 
2160.000000	80.212423 
2159.000000	80.213066 
2158.000000	80.213774 
2157.000000	80.214551 
2156.000000	80.215310 
2155.000000	80.215934 
2154.000000	80.216384 
2153.000000	80.216728 
2152.000000	80.217070 
2151.000000	80.217470 
2150.000000	80.217963 
2149.000000	80.218577 
2148.000000	80.219299 
2147.000000	80.220041 
2146.000000	80.220697 
2145.000000	80.221219 
2144.000000	80.221637 
2143.000000	80.222035 
2142.000000	80.222497 
2141.000000	80.223051 
2140.000000	80.223665 
2139.000000	80.224273 
2138.000000	80.224857 
2137.000000	80.225488 
2136.000000	80.226253 
2135.000000	80.227155 
2134.000000	80.228106 
2133.000000	80.228978 
2132.000000	80.229715 
2131.000000	80.230359 
2130.000000	80.231002 
2129.000000	80.231703 
2128.000000	80.232457 
2127.000000	80.233230 
2126.000000	80.234001 
2125.000000	80.234766 
2124.000000	80.235534 
2123.000000	80.236320 
2122.000000	80.237138 
2121.000000	80.237990 
2120.000000	80.238871 
2119.000000	80.239774 
2118.000000	80.240693 
2117.000000	80.241625 
2116.000000	80.242571 
2115.000000	80.243532 
2114.000000	80.244512 
2113.000000	80.245514 
2112.000000	80.246538 
2111.000000	80.247580 
2110.000000	80.248635 
2109.000000	80.249694 
2108.000000	80.250756 
2107.000000	80.251821 
2106.000000	80.252899 
2105.000000	80.253996 
2104.000000	80.255110 
2103.000000	80.256227 
2102.000000	80.257344 
2101.000000	80.258483 
2100.000000	80.259666 
2099.000000	80.260878 
2098.000000	80.262064 
2097.000000	80.263186 
2096.000000	80.264286 
2095.000000	80.265448 
2094.000000	80.266685 
2093.000000	80.267888 
2092.000000	80.268923 
2091.000000	80.269797 
2090.000000	80.270695 
2089.000000	80.271800 
2088.000000	80.273115 
2087.000000	80.274552 
2086.000000	80.276077 
2085.000000	80.277618 
2084.000000	80.278936 
2083.000000	80.279857 
2082.000000	80.280532 
2081.000000	80.281305 
2080.000000	80.282352 
2079.000000	80.283633 
2078.000000	80.285066 
2077.000000	80.286498 
2076.000000	80.287655 
2075.000000	80.288419 
2074.000000	80.289080 
2073.000000	80.289964 
2072.000000	80.290892 
2071.000000	80.291405 
2070.000000	80.291479 
2069.000000	80.291630 
2068.000000	80.292258 
2067.000000	80.293215 
2066.000000	80.294171 
2065.000000	80.295066 
2064.000000	80.295986 
2063.000000	80.296848 
2062.000000	80.297469 
2061.000000	80.297862 
2060.000000	80.298210 
2059.000000	80.298550 
2058.000000	80.298624 
2057.000000	80.298146 
2056.000000	80.297186 
2055.000000	80.296315 
2054.000000	80.296272 
2053.000000	80.297378 
2052.000000	80.299238 
2051.000000	80.300904 
2050.000000	80.301720 
2049.000000	80.301873 
2048.000000	80.302040 
2047.000000	80.302464 
2046.000000	80.302622 
2045.000000	80.301926 
2044.000000	80.300421 
2043.000000	80.298784 
2042.000000	80.297729 
2041.000000	80.297449 
2040.000000	80.297562 
2039.000000	80.297519 
2038.000000	80.297133 
2037.000000	80.296749 
2036.000000	80.296882 
2035.000000	80.297663 
2034.000000	80.298672 
2033.000000	80.299334 
2032.000000	80.299451 
2031.000000	80.299224 
2030.000000	80.298797 
2029.000000	80.298039 
2028.000000	80.296904 
2027.000000	80.295807 
2026.000000	80.295325 
2025.000000	80.295587 
2024.000000	80.296145 
2023.000000	80.296495 
2022.000000	80.296547 
2021.000000	80.296486 
2020.000000	80.296364 
2019.000000	80.296033 
2018.000000	80.295446 
2017.000000	80.294880 
2016.000000	80.294778 
2015.000000	80.295395 
2014.000000	80.296589 
2013.000000	80.297909 
2012.000000	80.298898 
2011.000000	80.299305 
2010.000000	80.299041 
2009.000000	80.298085 
2008.000000	80.296550 
2007.000000	80.294845 
2006.000000	80.293465 
2005.000000	80.292661 
2004.000000	80.292474 
2003.000000	80.292979 
2002.000000	80.294208 
2001.000000	80.295784 
2000.000000	80.296971 
1999.000000	80.297214 
1998.000000	80.296526 
1997.000000	80.295416 
1996.000000	80.294566 
1995.000000	80.294398 
1994.000000	80.294695 
1993.000000	80.294713 
1992.000000	80.294096 
1991.000000	80.293693 
1990.000000	80.294761 
1989.000000	80.297401 
1988.000000	80.300256 
1987.000000	80.301890 
1986.000000	80.302235 
1985.000000	80.302342 
1984.000000	80.303065 
1983.000000	80.304293 
1982.000000	80.305313 
1981.000000	80.305582 
1980.000000	80.305140 
1979.000000	80.304514 
1978.000000	80.304324 
1977.000000	80.304899 
1976.000000	80.306182 
1975.000000	80.307791 
1974.000000	80.309113 
1973.000000	80.309657 
1972.000000	80.309604 
1971.000000	80.309824 
1970.000000	80.311009 
1969.000000	80.312812 
1968.000000	80.314158 
1967.000000	80.314582 
1966.000000	80.314924 
1965.000000	80.316379 
1964.000000	80.319150 
1963.000000	80.322361 
1962.000000	80.325066 
1961.000000	80.327003 
1960.000000	80.328320 
1959.000000	80.328924 
1958.000000	80.328516 
1957.000000	80.327214 
1956.000000	80.325763 
1955.000000	80.324804 
1954.000000	80.324173 
1953.000000	80.323272 
1952.000000	80.322070 
1951.000000	80.321455 
1950.000000	80.322198 
1949.000000	80.323829 
1948.000000	80.324978 
1947.000000	80.324957 
1946.000000	80.324476 
1945.000000	80.324598 
1944.000000	80.325397 
1943.000000	80.326045 
1942.000000	80.326040 
1941.000000	80.325852 
1940.000000	80.326372 
1939.000000	80.328084 
1938.000000	80.330681 
1937.000000	80.333130 
1936.000000	80.334168 
1935.000000	80.333093 
1934.000000	80.330490 
1933.000000	80.328163 
1932.000000	80.327669 
1931.000000	80.328992 
1930.000000	80.330711 
1929.000000	80.331639 
1928.000000	80.332083 
1927.000000	80.333238 
1926.000000	80.335543 
1925.000000	80.337934 
1924.000000	80.339287 
1923.000000	80.340027 
1922.000000	80.341526 
1921.000000	80.344042 
1920.000000	80.346328 
1919.000000	80.347101 
1918.000000	80.346068 
1917.000000	80.343778 
1916.000000	80.341329 
1915.000000	80.340112 
1914.000000	80.340938 
1913.000000	80.343016 
1912.000000	80.344432 
1911.000000	80.344106 
1910.000000	80.342673 
1909.000000	80.341272 
1908.000000	80.340042 
1907.000000	80.338356 
1906.000000	80.335908 
1905.000000	80.332839 
1904.000000	80.329881 
1903.000000	80.328401 
1902.000000	80.329322 
1901.000000	80.331900 
1900.000000	80.334319 
1899.000000	80.335534 
1898.000000	80.335755 
1897.000000	80.335178 
1896.000000	80.333713 
1895.000000	80.332131 
1894.000000	80.331958 
1893.000000	80.333536 
1892.000000	80.335373 
1891.000000	80.335841 
1890.000000	80.334936 
1889.000000	80.334136 
1888.000000	80.334887 
1887.000000	80.337626 
1886.000000	80.341663 
1885.000000	80.345577 
1884.000000	80.348515 
1883.000000	80.350959 
1882.000000	80.353266 
1881.000000	80.354422 
1880.000000	80.353581 
1879.000000	80.352050 
1878.000000	80.352196 
1877.000000	80.354446 
1876.000000	80.357153 
1875.000000	80.359538 
1874.000000	80.362456 
1873.000000	80.365687 
1872.000000	80.367032 
1871.000000	80.365320 
1870.000000	80.363040 
1869.000000	80.364137 
1868.000000	80.369248 
1867.000000	80.375654 
1866.000000	80.381046 
1865.000000	80.384778 
1864.000000	80.387098 
1863.000000	80.389240 
1862.000000	80.392866 
1861.000000	80.398160 
1860.000000	80.403331 
1859.000000	80.407083 
1858.000000	80.410366 
1857.000000	80.414513 
1856.000000	80.419178 
1855.000000	80.423354 
1854.000000	80.426848 
1853.000000	80.430201 
1852.000000	80.433803 
1851.000000	80.437250 
1850.000000	80.440053 
1849.000000	80.442248 
1848.000000	80.444434 
1847.000000	80.447302 
1846.000000	80.450984 
1845.000000	80.454812 
1844.000000	80.457931 
1843.000000	80.460441 
1842.000000	80.463386 
1841.000000	80.467254 
1840.000000	80.471365 
1839.000000	80.474802 
1838.000000	80.477260 
1837.000000	80.478731 
1836.000000	80.479442 
1835.000000	80.480042 
1834.000000	80.481185 
1833.000000	80.483358 
1832.000000	80.486776 
1831.000000	80.490725 
1830.000000	80.493534 
1829.000000	80.493815 
1828.000000	80.492285 
1827.000000	80.490865 
1826.000000	80.490350 
1825.000000	80.490198 
1824.000000	80.490011 
1823.000000	80.490883 
1822.000000	80.494474 
1821.000000	80.500715 
1820.000000	80.507178 
1819.000000	80.511307 
1818.000000	80.512710 
1817.000000	80.512499 
1816.000000	80.512074 
1815.000000	80.512673 
1814.000000	80.514561 
1813.000000	80.516332 
1812.000000	80.516240 
1811.000000	80.515168 
1810.000000	80.516035 
1809.000000	80.519344 
1808.000000	80.522629 
1807.000000	80.525356 
1806.000000	80.530645 
1805.000000	80.539760 
1804.000000	80.548237 
1803.000000	80.550183 
1802.000000	80.545587 
1801.000000	80.540989 
1800.000000	80.540849 
1799.000000	80.543651 
1798.000000	80.546800 
1797.000000	80.549624 
1796.000000	80.552274 
1795.000000	80.555227 
1794.000000	80.559375 
1793.000000	80.564961 
1792.000000	80.569982 
1791.000000	80.572675 
1790.000000	80.574941 
1789.000000	80.580376 
1788.000000	80.590441 
1787.000000	80.603126 
1786.000000	80.614351 
1785.000000	80.621078 
1784.000000	80.624629 
1783.000000	80.629345 
1782.000000	80.637042 
1781.000000	80.644425 
1780.000000	80.645668 
1779.000000	80.640851 
1778.000000	80.637329 
1777.000000	80.641025 
1776.000000	80.651055 
1775.000000	80.663574 
1774.000000	80.677572 
1773.000000	80.694530 
1772.000000	80.710751 
1771.000000	80.720199 
1770.000000	80.726590 
1769.000000	80.737303 
1768.000000	80.753481 
1767.000000	80.771174 
1766.000000	80.787795 
1765.000000	80.804679 
1764.000000	80.822748 
1763.000000	80.840360 
1762.000000	80.856580 
1761.000000	80.873149 
1760.000000	80.891436 
1759.000000	80.911547 
1758.000000	80.932538 
1757.000000	80.952551 
1756.000000	80.969146 
1755.000000	80.982064 
1754.000000	80.994510 
1753.000000	81.008708 
1752.000000	81.022684 
1751.000000	81.034633 
1750.000000	81.047191 
1749.000000	81.062990 
1748.000000	81.080355 
1747.000000	81.095644 
1746.000000	81.109059 
1745.000000	81.123483 
1744.000000	81.137765 
1743.000000	81.147419 
1742.000000	81.151917 
1741.000000	81.156412 
1740.000000	81.163862 
1739.000000	81.170355 
1738.000000	81.171667 
1737.000000	81.167740 
1736.000000	81.155749 
1735.000000	81.130055 
1734.000000	81.095634 
1733.000000	81.069707 
1732.000000	81.061718 
1731.000000	81.066306 
1730.000000	81.074463 
1729.000000	81.079624 
1728.000000	81.079532 
1727.000000	81.074342 
1726.000000	81.065467 
1725.000000	81.054863 
1724.000000	81.043724 
1723.000000	81.033021 
1722.000000	81.022916 
1721.000000	81.012349 
1720.000000	80.999213 
1719.000000	80.981928 
1718.000000	80.961610 
1717.000000	80.940913 
1716.000000	80.922857 
1715.000000	80.910673 
1714.000000	80.904027 
1713.000000	80.896768 
1712.000000	80.882861 
1711.000000	80.863087 
1710.000000	80.842774 
1709.000000	80.825332 
1708.000000	80.809794 
1707.000000	80.794587 
1706.000000	80.781338 
1705.000000	80.770828 
1704.000000	80.760390 
1703.000000	80.747411 
1702.000000	80.731575 
1701.000000	80.718614 
1700.000000	80.712618 
1699.000000	80.707853 
1698.000000	80.705644 
1697.000000	80.710850 
1696.000000	80.720976 
1695.000000	80.727068 
1694.000000	80.724391 
1693.000000	80.717394 
1692.000000	80.711286 
1691.000000	80.708305 
1690.000000	80.708351 
1689.000000	80.709648 
1688.000000	80.710299 
1687.000000	80.709828 
1686.000000	80.710870 
1685.000000	80.717456 
1684.000000	80.724466 
1683.000000	80.720379 
1682.000000	80.709173 
1681.000000	80.699721 
1680.000000	80.696311 
1679.000000	80.699762 
1678.000000	80.709019 
1677.000000	80.721309 
1676.000000	80.732150 
1675.000000	80.736986 
1674.000000	80.736268 
1673.000000	80.736281 
1672.000000	80.739775 
1671.000000	80.744739 
1670.000000	80.748487 
1669.000000	80.751227 
1668.000000	80.754830 
1667.000000	80.758477 
1666.000000	80.759647 
1665.000000	80.758016 
1664.000000	80.756342 
1663.000000	80.757947 
1662.000000	80.762243 
1661.000000	80.767101 
1660.000000	80.771880 
1659.000000	80.776537 
1658.000000	80.781326 
1657.000000	80.786319 
1656.000000	80.789618 
1655.000000	80.787716 
1654.000000	80.783066 
1653.000000	80.782671 
1652.000000	80.783464 
1651.000000	80.784175 
1650.000000	80.785273 
1649.000000	80.786814 
1648.000000	80.787875 
1647.000000	80.787464 
1646.000000	80.785498 
1645.000000	80.784142 
1644.000000	80.784378 
1643.000000	80.785053 
1642.000000	80.784643 
1641.000000	80.783239 
1640.000000	80.781637 
1639.000000	80.779834 
1638.000000	80.777505 
1637.000000	80.776050 
1636.000000	80.778044 
1635.000000	80.781250 
1634.000000	80.781963 
1633.000000	80.779647 
1632.000000	80.775884 
1631.000000	80.772923 
1630.000000	80.772815 
1629.000000	80.775888 
1628.000000	80.779634 
1627.000000	80.780284 
1626.000000	80.776446 
1625.000000	80.770774 
1624.000000	80.767791 
1623.000000	80.769625 
1622.000000	80.773526 
1621.000000	80.776401 
1620.000000	80.777748 
1619.000000	80.778087 
1618.000000	80.778466 
1617.000000	80.780532 
1616.000000	80.784331 
1615.000000	80.788090 
1614.000000	80.790727 
1613.000000	80.792322 
1612.000000	80.793956 
1611.000000	80.796587 
1610.000000	80.800012 
1609.000000	80.803971 
1608.000000	80.808773 
1607.000000	80.813738 
1606.000000	80.816908 
1605.000000	80.818153 
1604.000000	80.819689 
1603.000000	80.823540 
1602.000000	80.829673 
1601.000000	80.836252 
1600.000000	80.841446 
1599.000000	80.844574 
1598.000000	80.846409 
1597.000000	80.848785 
1596.000000	80.853393 
1595.000000	80.860576 
1594.000000	80.868926 
1593.000000	80.876315 
1592.000000	80.881490 
1591.000000	80.884708 
1590.000000	80.887083 
1589.000000	80.889588 
1588.000000	80.892691 
1587.000000	80.896643 
1586.000000	80.901280 
1585.000000	80.905979 
1584.000000	80.910351 
1583.000000	80.914246 
1582.000000	80.918382 
1581.000000	80.924158 
1580.000000	80.932147 
1579.000000	80.941105 
1578.000000	80.949605 
1577.000000	80.957566 
1576.000000	80.964635 
1575.000000	80.968604 
1574.000000	80.969191 
1573.000000	80.968151 
1572.000000	80.966920 
1571.000000	80.967638 
1570.000000	80.972612 
1569.000000	80.980594 
1568.000000	80.988170 
1567.000000	80.993542 
1566.000000	80.997320 
1565.000000	81.001172 
1564.000000	81.006031 
1563.000000	81.010813 
1562.000000	81.013732 
1561.000000	81.013249 
1560.000000	81.013368 
1559.000000	81.021051 
1558.000000	81.028545 
1557.000000	81.034304 
1556.000000	81.038355 
1555.000000	81.038062 
1554.000000	81.035126 
1553.000000	81.036156 
1552.000000	81.042381 
1551.000000	81.047759 
1550.000000	81.047317 
1549.000000	81.042780 
1548.000000	81.039301 
1547.000000	81.038240 
1546.000000	81.037624 
1545.000000	81.037189 
1544.000000	81.039031 
1543.000000	81.043394 
1542.000000	81.048771 
1541.000000	81.053331 
1540.000000	81.052940 
1539.000000	81.045454 
1538.000000	81.037057 
1537.000000	81.031386 
1536.000000	81.026294 
1535.000000	81.018878 
1534.000000	81.010147 
1533.000000	81.004597 
1532.000000	81.003568 
1531.000000	81.004434 
1530.000000	81.004882 
1529.000000	81.004223 
1528.000000	81.002300 
1527.000000	80.999396 
1526.000000	80.996516 
1525.000000	80.994877 
1524.000000	80.994457 
1523.000000	80.994388 
1522.000000	80.994008 
1521.000000	80.992414 
1520.000000	80.989178 
1519.000000	80.986050 
1518.000000	80.984828 
1517.000000	80.985308 
1516.000000	80.985304 
1515.000000	80.984431 
1514.000000	80.984609 
1513.000000	80.986475 
1512.000000	80.988036 
1511.000000	80.987726 
1510.000000	80.986119 
1509.000000	80.984383 
1508.000000	80.983161 
1507.000000	80.983505 
1506.000000	80.982740 
1505.000000	80.979117 
1504.000000	80.975221 
1503.000000	80.973192 
1502.000000	80.973681 
1501.000000	80.976385 
1500.000000	80.980647 
1499.000000	80.986377 
1498.000000	80.994169 
1497.000000	81.002424 
1496.000000	81.005718 
1495.000000	81.001452 
1494.000000	80.993508 
1493.000000	80.986857 
1492.000000	80.982950 
1491.000000	80.981218 
1490.000000	80.981460 
1489.000000	80.983247 
1488.000000	80.984677 
1487.000000	80.985332 
1486.000000	80.986370 
1485.000000	80.987336 
1484.000000	80.986986 
1483.000000	80.984730 
1482.000000	80.981304 
1481.000000	80.978311 
1480.000000	80.977414 
1479.000000	80.979510 
1478.000000	80.983757 
1477.000000	80.987274 
1476.000000	80.987750 
1475.000000	80.986471 
1474.000000	80.987418 
1473.000000	80.993659 
1472.000000	81.003210 
1471.000000	81.012927 
1470.000000	81.023866 
1469.000000	81.036473 
1468.000000	81.047175 
1467.000000	81.052396 
1466.000000	81.053588 
1465.000000	81.055883 
1464.000000	81.060381 
1463.000000	81.063645 
1462.000000	81.065300 
1461.000000	81.068637 
1460.000000	81.076065 
1459.000000	81.085462 
1458.000000	81.087759 
1457.000000	81.070499 
1456.000000	81.033704 
1455.000000	80.995077 
1454.000000	80.968962 
1453.000000	80.957285 
1452.000000	80.952523 
1451.000000	80.947593 
1450.000000	80.945545 
1449.000000	80.954807 
1448.000000	80.974204 
1447.000000	80.991072 
1446.000000	80.997619 
1445.000000	80.999112 
1444.000000	81.001172 
1443.000000	81.001811 
1442.000000	80.998137 
1441.000000	80.993082 
1440.000000	80.991624 
1439.000000	80.993811 
1438.000000	80.994865 
1437.000000	80.990254 
1436.000000	80.980955 
1435.000000	80.971440 
1434.000000	80.965762 
1433.000000	80.964615 
1432.000000	80.964676 
1431.000000	80.961279 
1430.000000	80.951970 
1429.000000	80.937116 
1428.000000	80.918576 
1427.000000	80.898710 
1426.000000	80.878469 
1425.000000	80.857188 
1424.000000	80.834641 
1423.000000	80.812442 
1422.000000	80.791711 
1421.000000	80.768859 
1420.000000	80.734798 
1419.000000	80.683725 
1418.000000	80.624414 
1417.000000	80.571395 
1416.000000	80.529066 
1415.000000	80.491934 
1414.000000	80.452061 
1413.000000	80.405924 
1412.000000	80.357691 
1411.000000	80.315564 
1410.000000	80.284221 
1409.000000	80.262728 
1408.000000	80.249143 
1407.000000	80.243483 
1406.000000	80.246294 
1405.000000	80.258847 
1404.000000	80.282516 
1403.000000	80.314527 
1402.000000	80.348308 
1401.000000	80.379240 
1400.000000	80.406479 
1399.000000	80.427426 
1398.000000	80.430024 
1397.000000	80.396888 
1396.000000	80.324481 
1395.000000	80.245051 
1394.000000	80.214550 
1393.000000	80.258163 
1392.000000	80.350186 
1391.000000	80.445280 
1390.000000	80.513135 
1389.000000	80.548157 
1388.000000	80.559944 
1387.000000	80.561116 
1386.000000	80.560588 
1385.000000	80.563523 
1384.000000	80.572282 
1383.000000	80.586585 
1382.000000	80.605277 
1381.000000	80.627983 
1380.000000	80.653694 
1379.000000	80.679878 
1378.000000	80.705340 
1377.000000	80.732478 
1376.000000	80.764477 
1375.000000	80.800753 
1374.000000	80.836784 
1373.000000	80.868598 
1372.000000	80.895580 
1371.000000	80.919521 
1370.000000	80.943195 
1369.000000	80.969454 
1368.000000	80.999607 
1367.000000	81.031045 
1366.000000	81.059049 
1365.000000	81.081070 
1364.000000	81.097814 
1363.000000	81.112278 
1362.000000	81.127970 
1361.000000	81.145998 
1360.000000	81.164808 
1359.000000	81.183353 
1358.000000	81.202695 
1357.000000	81.223800 
1356.000000	81.244846 
1355.000000	81.262682 
1354.000000	81.277250 
1353.000000	81.291523 
1352.000000	81.305178 
1351.000000	81.313367 
1350.000000	81.315592 
1349.000000	81.318771 
1348.000000	81.326822 
1347.000000	81.335761 
1346.000000	81.341697 
1345.000000	81.346287 
1344.000000	81.351430 
1343.000000	81.353400 
1342.000000	81.346712 
1341.000000	81.331714 
1340.000000	81.315957 
1339.000000	81.307360 
1338.000000	81.306426 
1337.000000	81.307184 
1336.000000	81.304322 
1335.000000	81.297926 
1334.000000	81.293096 
1333.000000	81.294721 
1332.000000	81.301697 
1331.000000	81.307786 
1330.000000	81.308532 
1329.000000	81.305437 
1328.000000	81.303070 
1327.000000	81.304442 
1326.000000	81.309223 
1325.000000	81.313750 
1324.000000	81.313143 
1323.000000	81.304730 
1322.000000	81.291067 
1321.000000	81.278351 
1320.000000	81.271068 
1319.000000	81.269103 
1318.000000	81.270367 
1317.000000	81.274083 
1316.000000	81.279518 
1315.000000	81.283569 
1314.000000	81.282746 
1313.000000	81.277537 
1312.000000	81.272203 
1311.000000	81.269731 
1310.000000	81.268691 
1309.000000	81.265688 
1308.000000	81.259568 
1307.000000	81.252733 
1306.000000	81.248671 
1305.000000	81.248250 
1304.000000	81.249046 
1303.000000	81.247672 
1302.000000	81.242956 
1301.000000	81.236114 
1300.000000	81.228089 
1299.000000	81.217996 
1298.000000	81.205070 
1297.000000	81.191063 
1296.000000	81.179241 
1295.000000	81.171200 
1294.000000	81.165301 
1293.000000	81.158546 
1292.000000	81.149337 
1291.000000	81.138032 
1290.000000	81.125338 
1289.000000	81.110950 
1288.000000	81.094150 
1287.000000	81.075370 
1286.000000	81.056658 
1285.000000	81.040556 
1284.000000	81.028766 
1283.000000	81.021003 
1282.000000	81.013726 
1281.000000	81.001109 
1280.000000	80.979968 
1279.000000	80.953258 
1278.000000	80.927212 
1277.000000	80.905663 
1276.000000	80.888121 
1275.000000	80.872372 
1274.000000	80.856106 
1273.000000	80.836088 
1272.000000	80.809019 
1271.000000	80.774950 
1270.000000	80.737884 
1269.000000	80.701714 
1268.000000	80.667552 
1267.000000	80.635561 
1266.000000	80.606178 
1265.000000	80.577811 
1264.000000	80.546009 
1263.000000	80.507715 
1262.000000	80.465376 
1261.000000	80.424929 
1260.000000	80.390632 
1259.000000	80.362933 
1258.000000	80.339871 
1257.000000	80.319151 
1256.000000	80.299427 
1255.000000	80.280366 
1254.000000	80.260747 
1253.000000	80.237194 
1252.000000	80.207923 
1251.000000	80.178672 
1250.000000	80.161001 
1249.000000	80.162090 
1248.000000	80.178289 
1247.000000	80.198924 
1246.000000	80.212341 
1245.000000	80.207536 
1244.000000	80.178438 
1243.000000	80.135344 
1242.000000	80.107050 
1241.000000	80.118669 
1240.000000	80.165549 
1239.000000	80.215197 
1238.000000	80.238856 
1237.000000	80.234713 
1236.000000	80.217529 
1235.000000	80.196946 
1234.000000	80.173672 
1233.000000	80.149737 
1232.000000	80.130391 
1231.000000	80.115980 
1230.000000	80.100750 
1229.000000	80.081683 
1228.000000	80.062486 
1227.000000	80.046707 
1226.000000	80.031458 
1225.000000	80.010608 
1224.000000	79.982065 
1223.000000	79.950892 
1222.000000	79.927083 
1221.000000	79.919879 
1220.000000	79.930639 
1219.000000	79.949343 
1218.000000	79.960164 
1217.000000	79.952453 
1216.000000	79.925882 
1215.000000	79.886483 
1214.000000	79.840827 
1213.000000	79.793961 
1212.000000	79.749182 
1211.000000	79.706888 
1210.000000	79.664493 
1209.000000	79.619135 
1208.000000	79.570364 
1207.000000	79.519951 
1206.000000	79.470075 
1205.000000	79.421742 
1204.000000	79.373459 
1203.000000	79.320965 
1202.000000	79.260134 
1201.000000	79.191511 
1200.000000	79.120803 
1199.000000	79.053453 
1198.000000	78.989736 
1197.000000	78.926539 
1196.000000	78.862512 
1195.000000	78.799534 
1194.000000	78.739612 
1193.000000	78.682324 
1192.000000	78.625721 
1191.000000	78.567822 
1190.000000	78.507087 
1189.000000	78.443839 
1188.000000	78.381931 
1187.000000	78.326280 
1186.000000	78.276763 
1185.000000	78.226546 
1184.000000	78.168981 
1183.000000	78.105288 
1182.000000	78.043061 
1181.000000	77.987068 
1180.000000	77.933480 
1179.000000	77.873736 
1178.000000	77.802643 
1177.000000	77.721812 
1176.000000	77.636266 
1175.000000	77.549465 
1174.000000	77.461939 
1173.000000	77.373472 
1172.000000	77.285024 
1171.000000	77.197738 
1170.000000	77.111225 
1169.000000	77.024566 
1168.000000	76.938789 
1167.000000	76.856881 
1166.000000	76.782168 
1165.000000	76.719539 
1164.000000	76.678204 
1163.000000	76.668967 
1162.000000	76.695557 
1161.000000	76.749132 
1160.000000	76.811962 
1159.000000	76.865805 
1158.000000	76.897721 
1157.000000	76.901514 
1156.000000	76.876976 
1155.000000	76.828569 
1154.000000	76.763629 
1153.000000	76.690019 
1152.000000	76.613710 
1151.000000	76.536987 
1150.000000	76.458758 
1149.000000	76.377668 
1148.000000	76.294819 
1147.000000	76.212019 
1146.000000	76.128016 
1145.000000	76.039639 
1144.000000	75.947557 
1143.000000	75.857868 
1142.000000	75.775728 
1141.000000	75.699311 
1140.000000	75.622046 
1139.000000	75.539167 
1138.000000	75.450463 
1137.000000	75.358319 
1136.000000	75.264992 
1135.000000	75.171115 
1134.000000	75.075723 
1133.000000	74.978176 
1132.000000	74.879987 
1131.000000	74.782966 
1130.000000	74.685565 
1129.000000	74.583992 
1128.000000	74.477713 
1127.000000	74.370788 
1126.000000	74.266733 
1125.000000	74.164948 
1124.000000	74.063182 
1123.000000	73.960286 
1122.000000	73.855460 
1121.000000	73.748376 
1120.000000	73.641506 
1119.000000	73.538712 
1118.000000	73.439696 
1117.000000	73.339008 
1116.000000	73.231910 
1115.000000	73.118142 
1114.000000	72.999532 
1113.000000	72.878408 
1112.000000	72.759515 
1111.000000	72.647989 
1110.000000	72.542883 
1109.000000	72.437534 
1108.000000	72.328446 
1107.000000	72.219757 
1106.000000	72.117143 
1105.000000	72.021925 
1104.000000	71.933103 
1103.000000	71.850526 
1102.000000	71.773082 
1101.000000	71.698118 
1100.000000	71.624277 
1099.000000	71.552726 
1098.000000	71.483418 
1097.000000	71.413344 
1096.000000	71.339503 
1095.000000	71.258380 
1094.000000	71.160570 
1093.000000	71.032005 
1092.000000	70.866248 
1091.000000	70.674565 
1090.000000	70.480125 
1089.000000	70.300681 
1088.000000	70.137482 
1087.000000	69.979416 
1086.000000	69.815822 
1085.000000	69.646222 
1084.000000	69.478628 
1083.000000	69.318938 
1082.000000	69.164694 
1081.000000	69.011582 
1080.000000	68.862518 
1079.000000	68.724893 
1078.000000	68.601071 
1077.000000	68.488287 
1076.000000	68.386496 
1075.000000	68.298777 
1074.000000	68.224429 
1073.000000	68.158421 
1072.000000	68.094795 
1071.000000	68.020306 
1070.000000	67.907560 
1069.000000	67.732187 
1068.000000	67.506176 
1067.000000	67.285367 
1066.000000	67.129070 
1065.000000	67.053822 
1064.000000	67.030136 
1063.000000	67.012201 
1062.000000	66.964233 
1061.000000	66.868493 
1060.000000	66.728474 
1059.000000	66.571953 
1058.000000	66.439059 
1057.000000	66.354836 
1056.000000	66.311814 
1055.000000	66.279636 
1054.000000	66.231028 
1053.000000	66.159210 
1052.000000	66.072727 
1051.000000	65.977432 
1050.000000	65.867884 
1049.000000	65.737338 
1048.000000	65.589814 
1047.000000	65.436477 
1046.000000	65.284156 
1045.000000	65.134340 
1044.000000	64.990921 
1043.000000	64.860351 
1042.000000	64.742409 
1041.000000	64.626917 
1040.000000	64.503798 
1039.000000	64.376057 
1038.000000	64.262905 
1037.000000	64.189091 
1036.000000	64.165969 
1035.000000	64.179404 
1034.000000	64.200127 
1033.000000	64.207905 
1032.000000	64.197289 
1031.000000	64.159779 
1030.000000	64.081410 
1029.000000	63.973187 
1028.000000	63.887592 
1027.000000	63.878332 
1026.000000	63.944936 
1025.000000	64.035003 
1024.000000	64.100850 
1023.000000	64.135238 
1022.000000	64.152562 
1021.000000	64.160514 
1020.000000	64.159147 
1019.000000	64.150652 
1018.000000	64.138468 
1017.000000	64.125192 
1016.000000	64.117320 
1015.000000	64.123611 
1014.000000	64.144180 
1013.000000	64.169113 
1012.000000	64.190574 
1011.000000	64.208175 
1010.000000	64.222130 
1009.000000	64.231821 
1008.000000	64.242865 
1007.000000	64.264957 
1006.000000	64.299619 
1005.000000	64.338990 
1004.000000	64.378568 
1003.000000	64.421797 
1002.000000	64.470448 
1001.000000	64.520389 
1000.000000	64.569463 
999.000000	 64.620605 
998.000000	 64.674699 
997.000000	 64.728574 
996.000000	 64.782213 
995.000000	 64.840189 
994.000000	 64.903834 
993.000000	 64.968739 
992.000000	 65.031325 
991.000000	 65.091635 
990.000000	 65.149914 
989.000000	 65.207729 
988.000000	 65.271830 
987.000000	 65.348810 
986.000000	 65.436369 
985.000000	 65.527834 
984.000000	 65.623570 
983.000000	 65.729537 
982.000000	 65.848399 
981.000000	 65.979473 
980.000000	 66.123508 
979.000000	 66.279791 
978.000000	 66.440963 
977.000000	 66.600178 
976.000000	 66.761469 
975.000000	 66.933524 
974.000000	 67.115876 
973.000000	 67.300994 
972.000000	 67.487290 
971.000000	 67.679461 
970.000000	 67.877973 
969.000000	 68.078836 
968.000000	 68.282325 
967.000000	 68.491489 
966.000000	 68.703116 
965.000000	 68.910355 
964.000000	 69.113394 
963.000000	 69.317291 
962.000000	 69.519506 
961.000000	 69.709879 
960.000000	 69.884169 
959.000000	 70.048836 
958.000000	 70.210974 
957.000000	 70.370949 
956.000000	 70.526363 
955.000000	 70.676040 
954.000000	 70.817750 
953.000000	 70.947541 
952.000000	 71.063735 
951.000000	 71.168854 
950.000000	 71.267474 
949.000000	 71.364219 
948.000000	 71.461541 
947.000000	 71.556036 
946.000000	 71.640024 
945.000000	 71.710876 
944.000000	 71.775157 
943.000000	 71.838879 
942.000000	 71.898206 
941.000000	 71.946667 
940.000000	 71.987609 
939.000000	 72.031266 
938.000000	 72.081393 
937.000000	 72.132891 
936.000000	 72.181800 
935.000000	 72.229689 
934.000000	 72.278416 
933.000000	 72.327825 
932.000000	 72.378882 
931.000000	 72.432797 
930.000000	 72.487163 
929.000000	 72.538880 
928.000000	 72.590160 
927.000000	 72.645297 
926.000000	 72.702194 
925.000000	 72.753992 
924.000000	 72.799048 
923.000000	 72.842328 
922.000000	 72.885907 
921.000000	 72.924622 
920.000000	 72.953485 
919.000000	 72.974746 
918.000000	 72.995327 
917.000000	 73.020118 
916.000000	 73.048961 
915.000000	 73.078148 
914.000000	 73.105139 
913.000000	 73.133802 
912.000000	 73.173149 
911.000000	 73.228113 
910.000000	 73.294336 
909.000000	 73.366018 
908.000000	 73.446118 
907.000000	 73.543491 
906.000000	 73.661611 
905.000000	 73.794689 
904.000000	 73.933507 
903.000000	 74.072115 
902.000000	 74.211779 
901.000000	 74.361268 
900.000000	 74.529264 
899.000000	 74.713109 
898.000000	 74.899177 
897.000000	 75.076842 
896.000000	 75.245443 
895.000000	 75.404715 
894.000000	 75.548810 
893.000000	 75.677666 
892.000000	 75.806242 
891.000000	 75.952463 
890.000000	 76.119792 
889.000000	 76.298541 
888.000000	 76.478035 
887.000000	 76.648616 
886.000000	 76.798828 
885.000000	 76.923493 
884.000000	 77.032117 
883.000000	 77.138276 
882.000000	 77.242198 
881.000000	 77.335227 
880.000000	 77.419925 
879.000000	 77.511213 
878.000000	 77.614091 
877.000000	 77.713859 
876.000000	 77.795701 
875.000000	 77.863187 
874.000000	 77.929554 
873.000000	 77.999318 
872.000000	 78.068868 
871.000000	 78.140675 
870.000000	 78.225671 
869.000000	 78.330369 
868.000000	 78.448419 
867.000000	 78.567489 
866.000000	 78.681874 
865.000000	 78.796687 
864.000000	 78.920224 
863.000000	 79.052699 
862.000000	 79.182730 
861.000000	 79.296213 
860.000000	 79.389562 
859.000000	 79.473503 
858.000000	 79.562411 
857.000000	 79.659989 
856.000000	 79.757516 
855.000000	 79.846100 
854.000000	 79.926869 
853.000000	 80.005948 
852.000000	 80.082031 
851.000000	 80.145591 
850.000000	 80.192291 
849.000000	 80.231393 
848.000000	 80.275601 
847.000000	 80.324865 
846.000000	 80.365732 
845.000000	 80.386668 
844.000000	 80.389309 
843.000000	 80.383744 
842.000000	 80.377000 
841.000000	 80.368542 
840.000000	 80.353475 
839.000000	 80.325870 
838.000000	 80.281056 
837.000000	 80.220778 
836.000000	 80.157751 
835.000000	 80.110015 
834.000000	 80.085588 
833.000000	 80.073914 
832.000000	 80.056530 
831.000000	 80.026089 
830.000000	 79.992558 
829.000000	 79.971865 
828.000000	 79.972739 
827.000000	 79.994752 
826.000000	 80.032152 
825.000000	 80.074214 
824.000000	 80.105426 
823.000000	 80.113132 
822.000000	 80.097401 
821.000000	 80.070156 
820.000000	 80.043575 
819.000000	 80.020444 
818.000000	 79.993503 
817.000000	 79.951106 
816.000000	 79.884378 
815.000000	 79.791919 
814.000000	 79.678069 
813.000000	 79.544903 
812.000000	 79.385458 
811.000000	 79.185003 
810.000000	 78.928237 
809.000000	 78.606404 
808.000000	 78.221960 
807.000000	 77.789016 
806.000000	 77.326799 
805.000000	 76.851129 
804.000000	 76.374750 
803.000000	 75.914718 
802.000000	 75.493026 
801.000000	 75.128869 
800.000000	 74.835397 
799.000000	 74.623883 
798.000000	 74.504256 
797.000000	 74.477890 
796.000000	 74.531500 
795.000000	 74.639386 
794.000000	 74.772814 
793.000000	 74.910103 
792.000000	 75.040558 
791.000000	 75.160570 
790.000000	 75.265999 
789.000000	 75.346201 
788.000000	 75.384090 
787.000000	 75.364265 
786.000000	 75.284143 
785.000000	 75.156599 
784.000000	 75.000271 
783.000000	 74.828886 
782.000000	 74.651958 
781.000000	 74.483813 
780.000000	 74.346712 
779.000000	 74.262110 
778.000000	 74.240617 
777.000000	 74.282388 
776.000000	 74.383585 
775.000000	 74.537482 
774.000000	 74.731338 
773.000000	 74.947930 
772.000000	 75.170803 
771.000000	 75.386079 
770.000000	 75.582044 
769.000000	 75.751857 
768.000000	 75.896892 
767.000000	 76.024808 
766.000000	 76.143117 
765.000000	 76.254123 
764.000000	 76.354603 
763.000000	 76.439721 
762.000000	 76.508593 
761.000000	 76.566372 
760.000000	 76.619666 
759.000000	 76.670543 
758.000000	 76.717661 
757.000000	 76.763280 
756.000000	 76.815038 
755.000000	 76.878244 
754.000000	 76.948968 
753.000000	 77.018528 
752.000000	 77.084469 
751.000000	 77.154166 
750.000000	 77.236799 
749.000000	 77.332808 
748.000000	 77.432603 
747.000000	 77.526597 
746.000000	 77.615964 
745.000000	 77.710942 
744.000000	 77.817187 
743.000000	 77.927280 
742.000000	 78.029977 
741.000000	 78.125619 
740.000000	 78.226461 
739.000000	 78.341623 
738.000000	 78.466387 
737.000000	 78.587024 
736.000000	 78.691943 
735.000000	 78.776589 
734.000000	 78.842913 
733.000000	 78.898710 
732.000000	 78.954556 
731.000000	 79.016838 
730.000000	 79.084268 
729.000000	 79.152207 
728.000000	 79.215349 
727.000000	 79.265926 
726.000000	 79.297405 
725.000000	 79.313222 
724.000000	 79.328503 
723.000000	 79.359761 
722.000000	 79.413236 
721.000000	 79.483022 
720.000000	 79.556738 
719.000000	 79.622533 
718.000000	 79.674945 
717.000000	 79.716765 
716.000000	 79.754914 
715.000000	 79.792726 
714.000000	 79.826064 
713.000000	 79.847748 
712.000000	 79.854167 
711.000000	 79.847281 
710.000000	 79.832605 
709.000000	 79.817066 
708.000000	 79.804562 
707.000000	 79.791474 
706.000000	 79.769822 
705.000000	 79.734101 
704.000000	 79.681235 
703.000000	 79.605378 
702.000000	 79.494500 
701.000000	 79.335362 
700.000000	 79.122972 
699.000000	 78.862835 
698.000000	 78.571634 
697.000000	 78.281941 
696.000000	 78.043321 
695.000000	 77.909677 
694.000000	 77.910817 
693.000000	 78.032645 
692.000000	 78.225022 
691.000000	 78.430458 
690.000000	 78.615200 
689.000000	 78.774578 
688.000000	 78.913289 
687.000000	 79.030710 
686.000000	 79.123422 
685.000000	 79.196308 
684.000000	 79.264956 
683.000000	 79.344312 
682.000000	 79.440214 
681.000000	 79.550071 
680.000000	 79.666489 
679.000000	 79.776192 
678.000000	 79.863750 
677.000000	 79.927057 
676.000000	 79.980338 
675.000000	 80.038935 
674.000000	 80.105440 
673.000000	 80.169050 
672.000000	 80.214274 
671.000000	 80.222537 
670.000000	 80.183743 
669.000000	 80.114245 
668.000000	 80.113788 
667.000000	 80.245320 
666.000000	 80.421862 
665.000000	 80.576678 
664.000000	 80.711622 
663.000000	 80.827905 
662.000000	 80.925333 
661.000000	 81.010179 
660.000000	 81.089200 
659.000000	 81.159770 
658.000000	 81.221064 
657.000000	 81.282499 
656.000000	 81.341413 
655.000000	 81.376299 
654.000000	 81.379953 
653.000000	 81.371554 
652.000000	 81.362535 
651.000000	 81.343151 
650.000000	 81.317917 

