PE IR                   SPECTRUM    ASCII       PEDS        1.60        
  -1
~SP.SP
22/12/06
16:38:21.00
23/01/09
15:07:46.00
Administrator

650.000000
4









FRONTIER FT-IR,CPU32 MAIN 00.09.9951 07-SEPTEMBER-2011 11:49:41
MIR TGS
MIR
OPTKBR
90694
0.200000

4.000000
STRONG
RATIO
SPECTRUM
MAGNITUDE
MIRACLE ATR
DOUBLE

COMBINED


0


#HDR
-1
-1
#GR
CM-1
%T
0.00002384185791015625
0.0
4000.000000
-1.000000
3351
8
81.843567
73.970539
#DATA
4000.000000	81.804800 
3999.000000	81.805193 
3998.000000	81.804765 
3997.000000	81.803291 
3996.000000	81.801294 
3995.000000	81.799494 
3994.000000	81.797982 
3993.000000	81.796210 
3992.000000	81.793734 
3991.000000	81.790884 
3990.000000	81.788610 
3989.000000	81.787551 
3988.000000	81.787554 
3987.000000	81.787875 
3986.000000	81.787796 
3985.000000	81.787042 
3984.000000	81.785673 
3983.000000	81.783783 
3982.000000	81.781492 
3981.000000	81.779031 
3980.000000	81.776641 
3979.000000	81.774335 
3978.000000	81.771790 
3977.000000	81.768593 
3976.000000	81.764705 
3975.000000	81.760808 
3974.000000	81.757948 
3973.000000	81.756580 
3972.000000	81.756114 
3971.000000	81.755508 
3970.000000	81.754376 
3969.000000	81.753122 
3968.000000	81.752029 
3967.000000	81.750626 
3966.000000	81.748114 
3965.000000	81.744253 
3964.000000	81.739620 
3963.000000	81.735219 
3962.000000	81.731811 
3961.000000	81.729487 
3960.000000	81.727787 
3959.000000	81.726170 
3958.000000	81.724441 
3957.000000	81.722672 
3956.000000	81.720964 
3955.000000	81.719382 
3954.000000	81.717829 
3953.000000	81.715793 
3952.000000	81.712372 
3951.000000	81.706992 
3950.000000	81.700235 
3949.000000	81.693890 
3948.000000	81.689555 
3947.000000	81.687229 
3946.000000	81.685440 
3945.000000	81.682933 
3944.000000	81.680221 
3943.000000	81.678816 
3942.000000	81.678895 
3941.000000	81.678556 
3940.000000	81.675897 
3939.000000	81.671026 
3938.000000	81.665792 
3937.000000	81.661314 
3936.000000	81.656506 
3935.000000	81.649871 
3934.000000	81.642167 
3933.000000	81.636196 
3932.000000	81.633362 
3931.000000	81.632183 
3930.000000	81.631137 
3929.000000	81.630724 
3928.000000	81.631260 
3927.000000	81.630547 
3926.000000	81.626397 
3925.000000	81.619736 
3924.000000	81.613023 
3923.000000	81.607166 
3922.000000	81.601672 
3921.000000	81.596383 
3920.000000	81.591236 
3919.000000	81.585397 
3918.000000	81.579026 
3917.000000	81.574874 
3916.000000	81.575547 
3915.000000	81.580143 
3914.000000	81.585401 
3913.000000	81.588830 
3912.000000	81.589801 
3911.000000	81.587969 
3910.000000	81.583408 
3909.000000	81.577555 
3908.000000	81.572235 
3907.000000	81.566723 
3906.000000	81.557941 
3905.000000	81.544779 
3904.000000	81.529883 
3903.000000	81.516851 
3902.000000	81.507281 
3901.000000	81.501319 
3900.000000	81.498995 
3899.000000	81.499355 
3898.000000	81.500110 
3897.000000	81.499958 
3896.000000	81.500089 
3895.000000	81.501861 
3894.000000	81.503992 
3893.000000	81.502964 
3892.000000	81.497779 
3891.000000	81.491196 
3890.000000	81.486937 
3889.000000	81.485730 
3888.000000	81.484002 
3887.000000	81.479032 
3886.000000	81.472726 
3885.000000	81.467524 
3884.000000	81.463586 
3883.000000	81.460205 
3882.000000	81.457451 
3881.000000	81.456421 
3880.000000	81.457061 
3879.000000	81.457826 
3878.000000	81.457833 
3877.000000	81.456685 
3876.000000	81.454010 
3875.000000	81.450467 
3874.000000	81.447320 
3873.000000	81.444646 
3872.000000	81.441319 
3871.000000	81.437512 
3870.000000	81.434936 
3869.000000	81.433905 
3868.000000	81.432955 
3867.000000	81.430870 
3866.000000	81.428198 
3865.000000	81.426471 
3864.000000	81.426095 
3863.000000	81.426065 
3862.000000	81.425532 
3861.000000	81.424475 
3860.000000	81.423168 
3859.000000	81.421876 
3858.000000	81.421075 
3857.000000	81.421090 
3856.000000	81.420904 
3855.000000	81.419323 
3854.000000	81.417159 
3853.000000	81.415233 
3852.000000	81.413039 
3851.000000	81.410812 
3850.000000	81.409480 
3849.000000	81.409609 
3848.000000	81.410689 
3847.000000	81.411187 
3846.000000	81.409895 
3845.000000	81.406800 
3844.000000	81.403124 
3843.000000	81.400147 
3842.000000	81.397944 
3841.000000	81.395610 
3840.000000	81.392960 
3839.000000	81.390698 
3838.000000	81.389023 
3837.000000	81.387635 
3836.000000	81.387200 
3835.000000	81.388978 
3834.000000	81.392869 
3833.000000	81.397254 
3832.000000	81.400374 
3831.000000	81.401346 
3830.000000	81.400580 
3829.000000	81.398934 
3828.000000	81.396761 
3827.000000	81.394359 
3826.000000	81.392494 
3825.000000	81.391917 
3824.000000	81.392203 
3823.000000	81.391779 
3822.000000	81.391192 
3821.000000	81.391418 
3820.000000	81.391128 
3819.000000	81.389661 
3818.000000	81.387312 
3817.000000	81.385952 
3816.000000	81.387416 
3815.000000	81.388876 
3814.000000	81.386334 
3813.000000	81.380191 
3812.000000	81.374301 
3811.000000	81.371868 
3810.000000	81.372184 
3809.000000	81.371353 
3808.000000	81.367685 
3807.000000	81.363378 
3806.000000	81.360357 
3805.000000	81.359258 
3804.000000	81.359534 
3803.000000	81.360537 
3802.000000	81.363947 
3801.000000	81.368218 
3800.000000	81.369162 
3799.000000	81.367331 
3798.000000	81.366489 
3797.000000	81.369266 
3796.000000	81.374018 
3795.000000	81.375985 
3794.000000	81.373003 
3793.000000	81.367546 
3792.000000	81.363399 
3791.000000	81.361266 
3790.000000	81.359079 
3789.000000	81.355358 
3788.000000	81.350394 
3787.000000	81.344871 
3786.000000	81.339241 
3785.000000	81.334465 
3784.000000	81.331554 
3783.000000	81.330033 
3782.000000	81.328117 
3781.000000	81.324808 
3780.000000	81.321339 
3779.000000	81.319138 
3778.000000	81.317619 
3777.000000	81.315107 
3776.000000	81.311163 
3775.000000	81.307034 
3774.000000	81.304014 
3773.000000	81.301702 
3772.000000	81.298711 
3771.000000	81.294649 
3770.000000	81.289921 
3769.000000	81.284430 
3768.000000	81.278001 
3767.000000	81.271133 
3766.000000	81.264918 
3765.000000	81.260243 
3764.000000	81.256934 
3763.000000	81.254006 
3762.000000	81.250636 
3761.000000	81.246691 
3760.000000	81.242167 
3759.000000	81.236687 
3758.000000	81.230374 
3757.000000	81.224174 
3756.000000	81.218684 
3755.000000	81.213450 
3754.000000	81.207956 
3753.000000	81.202973 
3752.000000	81.199520 
3751.000000	81.196320 
3750.000000	81.190881 
3749.000000	81.183548 
3748.000000	81.177349 
3747.000000	81.172623 
3746.000000	81.166903 
3745.000000	81.161762 
3744.000000	81.159160 
3743.000000	81.155907 
3742.000000	81.150088 
3741.000000	81.144211 
3740.000000	81.141558 
3739.000000	81.141057 
3738.000000	81.136526 
3737.000000	81.124535 
3736.000000	81.110778 
3735.000000	81.103963 
3734.000000	81.105801 
3733.000000	81.111781 
3732.000000	81.117133 
3731.000000	81.119794 
3730.000000	81.119072 
3729.000000	81.113823 
3728.000000	81.103710 
3727.000000	81.091811 
3726.000000	81.081955 
3725.000000	81.075162 
3724.000000	81.070846 
3723.000000	81.068303 
3722.000000	81.066179 
3721.000000	81.063193 
3720.000000	81.059652 
3719.000000	81.055868 
3718.000000	81.051167 
3717.000000	81.044632 
3716.000000	81.035839 
3715.000000	81.025544 
3714.000000	81.015667 
3713.000000	81.008454 
3712.000000	81.003444 
3711.000000	80.996861 
3710.000000	80.986985 
3709.000000	80.975397 
3708.000000	80.963549 
3707.000000	80.951766 
3706.000000	80.939782 
3705.000000	80.926853 
3704.000000	80.912143 
3703.000000	80.896262 
3702.000000	80.881170 
3701.000000	80.868001 
3700.000000	80.856170 
3699.000000	80.843888 
3698.000000	80.830281 
3697.000000	80.816790 
3696.000000	80.802906 
3695.000000	80.784170 
3694.000000	80.758869 
3693.000000	80.732319 
3692.000000	80.710762 
3691.000000	80.692860 
3690.000000	80.673764 
3689.000000	80.654422 
3688.000000	80.640181 
3687.000000	80.633463 
3686.000000	80.632003 
3685.000000	80.633374 
3684.000000	80.638521 
3683.000000	80.646364 
3682.000000	80.647385 
3681.000000	80.633114 
3680.000000	80.607798 
3679.000000	80.582297 
3678.000000	80.555515 
3677.000000	80.523292 
3676.000000	80.499874 
3675.000000	80.493912 
3674.000000	80.495118 
3673.000000	80.494546 
3672.000000	80.488931 
3671.000000	80.484566 
3670.000000	80.489413 
3669.000000	80.495716 
3668.000000	80.495699 
3667.000000	80.493729 
3666.000000	80.494673 
3665.000000	80.497758 
3664.000000	80.499832 
3663.000000	80.499176 
3662.000000	80.496213 
3661.000000	80.492159 
3660.000000	80.487413 
3659.000000	80.480788 
3658.000000	80.471365 
3657.000000	80.463984 
3656.000000	80.463255 
3655.000000	80.466433 
3654.000000	80.469026 
3653.000000	80.468133 
3652.000000	80.462819 
3651.000000	80.457612 
3650.000000	80.458333 
3649.000000	80.465278 
3648.000000	80.477661 
3647.000000	80.494948 
3646.000000	80.513802 
3645.000000	80.530784 
3644.000000	80.546402 
3643.000000	80.564141 
3642.000000	80.585221 
3641.000000	80.604468 
3640.000000	80.614747 
3639.000000	80.615945 
3638.000000	80.614635 
3637.000000	80.615417 
3636.000000	80.616116 
3635.000000	80.614273 
3634.000000	80.612528 
3633.000000	80.614420 
3632.000000	80.617359 
3631.000000	80.612324 
3630.000000	80.603347 
3629.000000	80.606310 
3628.000000	80.618228 
3627.000000	80.626370 
3626.000000	80.629498 
3625.000000	80.631548 
3624.000000	80.634599 
3623.000000	80.637245 
3622.000000	80.636775 
3621.000000	80.633348 
3620.000000	80.629987 
3619.000000	80.627094 
3618.000000	80.622451 
3617.000000	80.617008 
3616.000000	80.613456 
3615.000000	80.613106 
3614.000000	80.617072 
3613.000000	80.625472 
3612.000000	80.635482 
3611.000000	80.643243 
3610.000000	80.648222 
3609.000000	80.654023 
3608.000000	80.663276 
3607.000000	80.673922 
3606.000000	80.682697 
3605.000000	80.689032 
3604.000000	80.694181 
3603.000000	80.698777 
3602.000000	80.702542 
3601.000000	80.705875 
3600.000000	80.709378 
3599.000000	80.712555 
3598.000000	80.714103 
3597.000000	80.713198 
3596.000000	80.710574 
3595.000000	80.708964 
3594.000000	80.710931 
3593.000000	80.716454 
3592.000000	80.723344 
3591.000000	80.728323 
3590.000000	80.728257 
3589.000000	80.722876 
3588.000000	80.716587 
3587.000000	80.714507 
3586.000000	80.718242 
3585.000000	80.726521 
3584.000000	80.736443 
3583.000000	80.744404 
3582.000000	80.747925 
3581.000000	80.747423 
3580.000000	80.745706 
3579.000000	80.745549 
3578.000000	80.747915 
3577.000000	80.752172 
3576.000000	80.757341 
3575.000000	80.762666 
3574.000000	80.767352 
3573.000000	80.770227 
3572.000000	80.770206 
3571.000000	80.766129 
3570.000000	80.756130 
3569.000000	80.739580 
3568.000000	80.721040 
3567.000000	80.708408 
3566.000000	80.705970 
3565.000000	80.713014 
3564.000000	80.726374 
3563.000000	80.742048 
3562.000000	80.756346 
3561.000000	80.767226 
3560.000000	80.774896 
3559.000000	80.780523 
3558.000000	80.784489 
3557.000000	80.786244 
3556.000000	80.785693 
3555.000000	80.784128 
3554.000000	80.783567 
3553.000000	80.784917 
3552.000000	80.786551 
3551.000000	80.785427 
3550.000000	80.779579 
3549.000000	80.769078 
3548.000000	80.755594 
3547.000000	80.742295 
3546.000000	80.733606 
3545.000000	80.733353 
3544.000000	80.742102 
3543.000000	80.756117 
3542.000000	80.769839 
3541.000000	80.779699 
3540.000000	80.785319 
3539.000000	80.787996 
3538.000000	80.789371 
3537.000000	80.791356 
3536.000000	80.795498 
3535.000000	80.801794 
3534.000000	80.808512 
3533.000000	80.813722 
3532.000000	80.816579 
3531.000000	80.817068 
3530.000000	80.815329 
3529.000000	80.811705 
3528.000000	80.806915 
3527.000000	80.801458 
3526.000000	80.795495 
3525.000000	80.789877 
3524.000000	80.786732 
3523.000000	80.787834 
3522.000000	80.792691 
3521.000000	80.799108 
3520.000000	80.805326 
3519.000000	80.811078 
3518.000000	80.816565 
3517.000000	80.821185 
3516.000000	80.823793 
3515.000000	80.824004 
3514.000000	80.822527 
3513.000000	80.820406 
3512.000000	80.818602 
3511.000000	80.818233 
3510.000000	80.820319 
3509.000000	80.824786 
3508.000000	80.830026 
3507.000000	80.833889 
3506.000000	80.835277 
3505.000000	80.834708 
3504.000000	80.833723 
3503.000000	80.833723 
3502.000000	80.835220 
3501.000000	80.837900 
3500.000000	80.841027 
3499.000000	80.843774 
3498.000000	80.845601 
3497.000000	80.846570 
3496.000000	80.847248 
3495.000000	80.848250 
3494.000000	80.849797 
3493.000000	80.851657 
3492.000000	80.853462 
3491.000000	80.855050 
3490.000000	80.856501 
3489.000000	80.857940 
3488.000000	80.859397 
3487.000000	80.860838 
3486.000000	80.862248 
3485.000000	80.863644 
3484.000000	80.865025 
3483.000000	80.866350 
3482.000000	80.867609 
3481.000000	80.868840 
3480.000000	80.870086 
3479.000000	80.871349 
3478.000000	80.872614 
3477.000000	80.873851 
3476.000000	80.875039 
3475.000000	80.876186 
3474.000000	80.877327 
3473.000000	80.878483 
3472.000000	80.879636 
3471.000000	80.880752 
3470.000000	80.881812 
3469.000000	80.882829 
3468.000000	80.883831 
3467.000000	80.884865 
3466.000000	80.885969 
3465.000000	80.887150 
3464.000000	80.888361 
3463.000000	80.889510 
3462.000000	80.890544 
3461.000000	80.891475 
3460.000000	80.892368 
3459.000000	80.893288 
3458.000000	80.894253 
3457.000000	80.895240 
3456.000000	80.896252 
3455.000000	80.897330 
3454.000000	80.898483 
3453.000000	80.899669 
3452.000000	80.900832 
3451.000000	80.901937 
3450.000000	80.902968 
3449.000000	80.903918 
3448.000000	80.904811 
3447.000000	80.905716 
3446.000000	80.906691 
3445.000000	80.907740 
3444.000000	80.908804 
3443.000000	80.909823 
3442.000000	80.910790 
3441.000000	80.911726 
3440.000000	80.912618 
3439.000000	80.913376 
3438.000000	80.913934 
3437.000000	80.914390 
3436.000000	80.914971 
3435.000000	80.915803 
3434.000000	80.916747 
3433.000000	80.917506 
3432.000000	80.917909 
3431.000000	80.918052 
3430.000000	80.918156 
3429.000000	80.918349 
3428.000000	80.918707 
3427.000000	80.919392 
3426.000000	80.920520 
3425.000000	80.921824 
3424.000000	80.922670 
3423.000000	80.922648 
3422.000000	80.922101 
3421.000000	80.921882 
3420.000000	80.922569 
3419.000000	80.924103 
3418.000000	80.925979 
3417.000000	80.927417 
3416.000000	80.927545 
3415.000000	80.926094 
3414.000000	80.924125 
3413.000000	80.923496 
3412.000000	80.925077 
3411.000000	80.927770 
3410.000000	80.929568 
3409.000000	80.929469 
3408.000000	80.927937 
3407.000000	80.925924 
3406.000000	80.924006 
3405.000000	80.922316 
3404.000000	80.920587 
3403.000000	80.918195 
3402.000000	80.914685 
3401.000000	80.910560 
3400.000000	80.907300 
3399.000000	80.906370 
3398.000000	80.908187 
3397.000000	80.911804 
3396.000000	80.915314 
3395.000000	80.916976 
3394.000000	80.916298 
3393.000000	80.914125 
3392.000000	80.911817 
3391.000000	80.910283 
3390.000000	80.909838 
3389.000000	80.910555 
3388.000000	80.912379 
3387.000000	80.915112 
3386.000000	80.918451 
3385.000000	80.921960 
3384.000000	80.924972 
3383.000000	80.926765 
3382.000000	80.926949 
3381.000000	80.925611 
3380.000000	80.923187 
3379.000000	80.920366 
3378.000000	80.917965 
3377.000000	80.916468 
3376.000000	80.915593 
3375.000000	80.914658 
3374.000000	80.913448 
3373.000000	80.912352 
3372.000000	80.911557 
3371.000000	80.910491 
3370.000000	80.908377 
3369.000000	80.905170 
3368.000000	80.901678 
3367.000000	80.898859 
3366.000000	80.897168 
3365.000000	80.896464 
3364.000000	80.896314 
3363.000000	80.896250 
3362.000000	80.895831 
3361.000000	80.894693 
3360.000000	80.892712 
3359.000000	80.890232 
3358.000000	80.888010 
3357.000000	80.886647 
3356.000000	80.886001 
3355.000000	80.885146 
3354.000000	80.883106 
3353.000000	80.879652 
3352.000000	80.875533 
3351.000000	80.872039 
3350.000000	80.870053 
3349.000000	80.869595 
3348.000000	80.869886 
3347.000000	80.869771 
3346.000000	80.868490 
3345.000000	80.866016 
3344.000000	80.862881 
3343.000000	80.859650 
3342.000000	80.856493 
3341.000000	80.853296 
3340.000000	80.849974 
3339.000000	80.846541 
3338.000000	80.843019 
3337.000000	80.839458 
3336.000000	80.836071 
3335.000000	80.833184 
3334.000000	80.830907 
3333.000000	80.828902 
3332.000000	80.826629 
3331.000000	80.823871 
3330.000000	80.820863 
3329.000000	80.817869 
3328.000000	80.814775 
3327.000000	80.811295 
3326.000000	80.807506 
3325.000000	80.803919 
3324.000000	80.800934 
3323.000000	80.798358 
3322.000000	80.795543 
3321.000000	80.791962 
3320.000000	80.787570 
3319.000000	80.782731 
3318.000000	80.777945 
3317.000000	80.773591 
3316.000000	80.769767 
3315.000000	80.766204 
3314.000000	80.762371 
3313.000000	80.757850 
3312.000000	80.752677 
3311.000000	80.747340 
3310.000000	80.742406 
3309.000000	80.738056 
3308.000000	80.734042 
3307.000000	80.729927 
3306.000000	80.725419 
3305.000000	80.720540 
3304.000000	80.715604 
3303.000000	80.711045 
3302.000000	80.707116 
3301.000000	80.703663 
3300.000000	80.700095 
3299.000000	80.695767 
3298.000000	80.690443 
3297.000000	80.684420 
3296.000000	80.678353 
3295.000000	80.672811 
3294.000000	80.668015 
3293.000000	80.663863 
3292.000000	80.660130 
3291.000000	80.656651 
3290.000000	80.653277 
3289.000000	80.649645 
3288.000000	80.645236 
3287.000000	80.639807 
3286.000000	80.633706 
3285.000000	80.627600 
3284.000000	80.621847 
3283.000000	80.616346 
3282.000000	80.610997 
3281.000000	80.606000 
3280.000000	80.601509 
3279.000000	80.597167 
3278.000000	80.592228 
3277.000000	80.586168 
3276.000000	80.579142 
3275.000000	80.571972 
3274.000000	80.565709 
3273.000000	80.561004 
3272.000000	80.557639 
3271.000000	80.554694 
3270.000000	80.551369 
3269.000000	80.547783 
3268.000000	80.544747 
3267.000000	80.542614 
3266.000000	80.540552 
3265.000000	80.537262 
3264.000000	80.532384 
3263.000000	80.526927 
3262.000000	80.522070 
3261.000000	80.517650 
3260.000000	80.512377 
3259.000000	80.505647 
3258.000000	80.498597 
3257.000000	80.492926 
3256.000000	80.488947 
3255.000000	80.485308 
3254.000000	80.480639 
3253.000000	80.474955 
3252.000000	80.469310 
3251.000000	80.464615 
3250.000000	80.461065 
3249.000000	80.458360 
3248.000000	80.455949 
3247.000000	80.453060 
3246.000000	80.448962 
3245.000000	80.443420 
3244.000000	80.436747 
3243.000000	80.429244 
3242.000000	80.420808 
3241.000000	80.411417 
3240.000000	80.402013 
3239.000000	80.394337 
3238.000000	80.389398 
3237.000000	80.386327 
3236.000000	80.383162 
3235.000000	80.379016 
3234.000000	80.374835 
3233.000000	80.371670 
3232.000000	80.368895 
3231.000000	80.364891 
3230.000000	80.359156 
3229.000000	80.352949 
3228.000000	80.347764 
3227.000000	80.343713 
3226.000000	80.339684 
3225.000000	80.334735 
3224.000000	80.329098 
3223.000000	80.323946 
3222.000000	80.320340 
3221.000000	80.318197 
3220.000000	80.316165 
3219.000000	80.312713 
3218.000000	80.307544 
3217.000000	80.301857 
3216.000000	80.297161 
3215.000000	80.293805 
3214.000000	80.290818 
3213.000000	80.287102 
3212.000000	80.282426 
3211.000000	80.277168 
3210.000000	80.271510 
3209.000000	80.265334 
3208.000000	80.258825 
3207.000000	80.252651 
3206.000000	80.247305 
3205.000000	80.242524 
3204.000000	80.237644 
3203.000000	80.232430 
3202.000000	80.227317 
3201.000000	80.222832 
3200.000000	80.219057 
3199.000000	80.215676 
3198.000000	80.212339 
3197.000000	80.208861 
3196.000000	80.205229 
3195.000000	80.201616 
3194.000000	80.198318 
3193.000000	80.195437 
3192.000000	80.192569 
3191.000000	80.188967 
3190.000000	80.184194 
3189.000000	80.178536 
3188.000000	80.172859 
3187.000000	80.167963 
3186.000000	80.164024 
3185.000000	80.160646 
3184.000000	80.157196 
3183.000000	80.153213 
3182.000000	80.148645 
3181.000000	80.143875 
3180.000000	80.139488 
3179.000000	80.135795 
3178.000000	80.132603 
3177.000000	80.129484 
3176.000000	80.126256 
3175.000000	80.122983 
3174.000000	80.119553 
3173.000000	80.115619 
3172.000000	80.111069 
3171.000000	80.106270 
3170.000000	80.101700 
3169.000000	80.097485 
3168.000000	80.093496 
3167.000000	80.089690 
3166.000000	80.086122 
3165.000000	80.082694 
3164.000000	80.079145 
3163.000000	80.075349 
3162.000000	80.071473 
3161.000000	80.067761 
3160.000000	80.064272 
3159.000000	80.060851 
3158.000000	80.057292 
3157.000000	80.053484 
3156.000000	80.049447 
3155.000000	80.045341 
3154.000000	80.041397 
3153.000000	80.037774 
3152.000000	80.034460 
3151.000000	80.031275 
3150.000000	80.028024 
3149.000000	80.024636 
3148.000000	80.021121 
3147.000000	80.017457 
3146.000000	80.013599 
3145.000000	80.009611 
3144.000000	80.005747 
3143.000000	80.002244 
3142.000000	79.999027 
3141.000000	79.995823 
3140.000000	79.992641 
3139.000000	79.989899 
3138.000000	79.987857 
3137.000000	79.986096 
3136.000000	79.983777 
3135.000000	79.980487 
3134.000000	79.976550 
3133.000000	79.972607 
3132.000000	79.969053 
3131.000000	79.965968 
3130.000000	79.963374 
3129.000000	79.961265 
3128.000000	79.959478 
3127.000000	79.957713 
3126.000000	79.955627 
3125.000000	79.952936 
3124.000000	79.949560 
3123.000000	79.945722 
3122.000000	79.941817 
3121.000000	79.938091 
3120.000000	79.934537 
3119.000000	79.931133 
3118.000000	79.928051 
3117.000000	79.925517 
3116.000000	79.923586 
3115.000000	79.922113 
3114.000000	79.920731 
3113.000000	79.918880 
3112.000000	79.916152 
3111.000000	79.912783 
3110.000000	79.909703 
3109.000000	79.907848 
3108.000000	79.907397 
3107.000000	79.907595 
3106.000000	79.907307 
3105.000000	79.905929 
3104.000000	79.903617 
3103.000000	79.900743 
3102.000000	79.897419 
3101.000000	79.893800 
3100.000000	79.890654 
3099.000000	79.888912 
3098.000000	79.888452 
3097.000000	79.887847 
3096.000000	79.885698 
3095.000000	79.881842 
3094.000000	79.876891 
3093.000000	79.871156 
3092.000000	79.864963 
3091.000000	79.859733 
3090.000000	79.857385 
3089.000000	79.858244 
3088.000000	79.860304 
3087.000000	79.861139 
3086.000000	79.859930 
3085.000000	79.857192 
3084.000000	79.853553 
3083.000000	79.849282 
3082.000000	79.844291 
3081.000000	79.838258 
3080.000000	79.831569 
3079.000000	79.826233 
3078.000000	79.824511 
3077.000000	79.826192 
3076.000000	79.828446 
3075.000000	79.828821 
3074.000000	79.827160 
3073.000000	79.824557 
3072.000000	79.822234 
3071.000000	79.821830 
3070.000000	79.824629 
3069.000000	79.829284 
3068.000000	79.831957 
3067.000000	79.830133 
3066.000000	79.825252 
3065.000000	79.820846 
3064.000000	79.819203 
3063.000000	79.820120 
3062.000000	79.821027 
3061.000000	79.817811 
3060.000000	79.808223 
3059.000000	79.795904 
3058.000000	79.788420 
3057.000000	79.789047 
3056.000000	79.792656 
3055.000000	79.792256 
3054.000000	79.787375 
3053.000000	79.782826 
3052.000000	79.780831 
3051.000000	79.778186 
3050.000000	79.771166 
3049.000000	79.759890 
3048.000000	79.747233 
3047.000000	79.735816 
3046.000000	79.726857 
3045.000000	79.719996 
3044.000000	79.713360 
3043.000000	79.705293 
3042.000000	79.696602 
3041.000000	79.689688 
3040.000000	79.684800 
3039.000000	79.678435 
3038.000000	79.666569 
3037.000000	79.649064 
3036.000000	79.630287 
3035.000000	79.615336 
3034.000000	79.605490 
3033.000000	79.597118 
3032.000000	79.585521 
3031.000000	79.569902 
3030.000000	79.553498 
3029.000000	79.538402 
3028.000000	79.522015 
3027.000000	79.499923 
3026.000000	79.470968 
3025.000000	79.437705 
3024.000000	79.402581 
3023.000000	79.366138 
3022.000000	79.329477 
3021.000000	79.295966 
3020.000000	79.268581 
3019.000000	79.246253 
3018.000000	79.224213 
3017.000000	79.197707 
3016.000000	79.164768 
3015.000000	79.126424 
3014.000000	79.086029 
3013.000000	79.048368 
3012.000000	79.017241 
3011.000000	78.992209 
3010.000000	78.968167 
3009.000000	78.939669 
3008.000000	78.905825 
3007.000000	78.870115 
3006.000000	78.835613 
3005.000000	78.802045 
3004.000000	78.767884 
3003.000000	78.733218 
3002.000000	78.699033 
3001.000000	78.665342 
3000.000000	78.632409 
2999.000000	78.603083 
2998.000000	78.581258 
2997.000000	78.567504 
2996.000000	78.557605 
2995.000000	78.545008 
2994.000000	78.523239 
2993.000000	78.487515 
2992.000000	78.438512 
2991.000000	78.385948 
2990.000000	78.345071 
2989.000000	78.326880 
2988.000000	78.332689 
2987.000000	78.357847 
2986.000000	78.397007 
2985.000000	78.443803 
2984.000000	78.489016 
2983.000000	78.524395 
2982.000000	78.548381 
2981.000000	78.565417 
2980.000000	78.579826 
2979.000000	78.592239 
2978.000000	78.601005 
2977.000000	78.604102 
2976.000000	78.599703 
2975.000000	78.587677 
2974.000000	78.571197 
2973.000000	78.554675 
2972.000000	78.539202 
2971.000000	78.521590 
2970.000000	78.498522 
2969.000000	78.470310 
2968.000000	78.440455 
2967.000000	78.413275 
2966.000000	78.392149 
2965.000000	78.377813 
2964.000000	78.367015 
2963.000000	78.354410 
2962.000000	78.337470 
2961.000000	78.319262 
2960.000000	78.305657 
2959.000000	78.300434 
2958.000000	78.303588 
2957.000000	78.313201 
2956.000000	78.327447 
2955.000000	78.344777 
2954.000000	78.363375 
2953.000000	78.381439 
2952.000000	78.398059 
2951.000000	78.413132 
2950.000000	78.425819 
2949.000000	78.433488 
2948.000000	78.433356 
2947.000000	78.425769 
2946.000000	78.415307 
2945.000000	78.407761 
2944.000000	78.406018 
2943.000000	78.408998 
2942.000000	78.413312 
2941.000000	78.414846 
2940.000000	78.410084 
2939.000000	78.398127 
2938.000000	78.381251 
2937.000000	78.362315 
2936.000000	78.342019 
2935.000000	78.319894 
2934.000000	78.297121 
2933.000000	78.276014 
2932.000000	78.256427 
2931.000000	78.234970 
2930.000000	78.209099 
2929.000000	78.180686 
2928.000000	78.154320 
2927.000000	78.133046 
2926.000000	78.117358 
2925.000000	78.107640 
2924.000000	78.105481 
2923.000000	78.111703 
2922.000000	78.124312 
2921.000000	78.139772 
2920.000000	78.156185 
2919.000000	78.174030 
2918.000000	78.193357 
2917.000000	78.211251 
2916.000000	78.223204 
2915.000000	78.226980 
2914.000000	78.224757 
2913.000000	78.221834 
2912.000000	78.223624 
2911.000000	78.232600 
2910.000000	78.246272 
2909.000000	78.258297 
2908.000000	78.263733 
2907.000000	78.263691 
2906.000000	78.263026 
2905.000000	78.263069 
2904.000000	78.259826 
2903.000000	78.251759 
2902.000000	78.246666 
2901.000000	78.256839 
2900.000000	78.286888 
2899.000000	78.328579 
2898.000000	78.367733 
2897.000000	78.395342 
2896.000000	78.411564 
2895.000000	78.421682 
2894.000000	78.430833 
2893.000000	78.441458 
2892.000000	78.453543 
2891.000000	78.466039 
2890.000000	78.478083 
2889.000000	78.488976 
2888.000000	78.497688 
2887.000000	78.503664 
2886.000000	78.508538 
2885.000000	78.516039 
2884.000000	78.529207 
2883.000000	78.547954 
2882.000000	78.569649 
2881.000000	78.591511 
2880.000000	78.612007 
2879.000000	78.630895 
2878.000000	78.648863 
2877.000000	78.666539 
2876.000000	78.682567 
2875.000000	78.693113 
2874.000000	78.695078 
2873.000000	78.690492 
2872.000000	78.686472 
2871.000000	78.689357 
2870.000000	78.699341 
2869.000000	78.711423 
2868.000000	78.720959 
2867.000000	78.727561 
2866.000000	78.734150 
2865.000000	78.743254 
2864.000000	78.754324 
2863.000000	78.764174 
2862.000000	78.770093 
2861.000000	78.772715 
2860.000000	78.775209 
2859.000000	78.779383 
2858.000000	78.783725 
2857.000000	78.786163 
2856.000000	78.787695 
2855.000000	78.791907 
2854.000000	78.801731 
2853.000000	78.818479 
2852.000000	78.843238 
2851.000000	78.875991 
2850.000000	78.912829 
2849.000000	78.946918 
2848.000000	78.974174 
2847.000000	78.996471 
2846.000000	79.018136 
2845.000000	79.041009 
2844.000000	79.064260 
2843.000000	79.087215 
2842.000000	79.109943 
2841.000000	79.131697 
2840.000000	79.150942 
2839.000000	79.167044 
2838.000000	79.180678 
2837.000000	79.192736 
2836.000000	79.203934 
2835.000000	79.215234 
2834.000000	79.227352 
2833.000000	79.239644 
2832.000000	79.250359 
2831.000000	79.258167 
2830.000000	79.263076 
2829.000000	79.266019 
2828.000000	79.268090 
2827.000000	79.269870 
2826.000000	79.271215 
2825.000000	79.272214 
2824.000000	79.274213 
2823.000000	79.278542 
2822.000000	79.284060 
2821.000000	79.287740 
2820.000000	79.288468 
2819.000000	79.288485 
2818.000000	79.290024 
2817.000000	79.292481 
2816.000000	79.294617 
2815.000000	79.297591 
2814.000000	79.303186 
2813.000000	79.310217 
2812.000000	79.315410 
2811.000000	79.317341 
2810.000000	79.317227 
2809.000000	79.316220 
2808.000000	79.314283 
2807.000000	79.311582 
2806.000000	79.308770 
2805.000000	79.305907 
2804.000000	79.302928 
2803.000000	79.300921 
2802.000000	79.300968 
2801.000000	79.301993 
2800.000000	79.302082 
2799.000000	79.301853 
2798.000000	79.303913 
2797.000000	79.308560 
2796.000000	79.312404 
2795.000000	79.312122 
2794.000000	79.307739 
2793.000000	79.301615 
2792.000000	79.296180 
2791.000000	79.293410 
2790.000000	79.294497 
2789.000000	79.298672 
2788.000000	79.303196 
2787.000000	79.305780 
2786.000000	79.306613 
2785.000000	79.307485 
2784.000000	79.309480 
2783.000000	79.311946 
2782.000000	79.313340 
2781.000000	79.312810 
2780.000000	79.311026 
2779.000000	79.309496 
2778.000000	79.309003 
2777.000000	79.308987 
2776.000000	79.308557 
2775.000000	79.307584 
2774.000000	79.306521 
2773.000000	79.305626 
2772.000000	79.304849 
2771.000000	79.304188 
2770.000000	79.303682 
2769.000000	79.303243 
2768.000000	79.302795 
2767.000000	79.302478 
2766.000000	79.302471 
2765.000000	79.302711 
2764.000000	79.302930 
2763.000000	79.302954 
2762.000000	79.302823 
2761.000000	79.302616 
2760.000000	79.302309 
2759.000000	79.301870 
2758.000000	79.301401 
2757.000000	79.301101 
2756.000000	79.301081 
2755.000000	79.301279 
2754.000000	79.301498 
2753.000000	79.301554 
2752.000000	79.301405 
2751.000000	79.301162 
2750.000000	79.301042 
2749.000000	79.301165 
2748.000000	79.301478 
2747.000000	79.301816 
2746.000000	79.302080 
2745.000000	79.302270 
2744.000000	79.302368 
2743.000000	79.302316 
2742.000000	79.302125 
2741.000000	79.301925 
2740.000000	79.301807 
2739.000000	79.301702 
2738.000000	79.301485 
2737.000000	79.301175 
2736.000000	79.300999 
2735.000000	79.301209 
2734.000000	79.301775 
2733.000000	79.302266 
2732.000000	79.302213 
2731.000000	79.301666 
2730.000000	79.301206 
2729.000000	79.301230 
2728.000000	79.301475 
2727.000000	79.301552 
2726.000000	79.301636 
2725.000000	79.302137 
2724.000000	79.302906 
2723.000000	79.303345 
2722.000000	79.303156 
2721.000000	79.302400 
2720.000000	79.300948 
2719.000000	79.298627 
2718.000000	79.295985 
2717.000000	79.294295 
2716.000000	79.294546 
2715.000000	79.296792 
2714.000000	79.300358 
2713.000000	79.304193 
2712.000000	79.307090 
2711.000000	79.308179 
2710.000000	79.307398 
2709.000000	79.305539 
2708.000000	79.303641 
2707.000000	79.302400 
2706.000000	79.302074 
2705.000000	79.302366 
2704.000000	79.302451 
2703.000000	79.301563 
2702.000000	79.299557 
2701.000000	79.296810 
2700.000000	79.293829 
2699.000000	79.291176 
2698.000000	79.289306 
2697.000000	79.288071 
2696.000000	79.286662 
2695.000000	79.284435 
2694.000000	79.281645 
2693.000000	79.279012 
2692.000000	79.276765 
2691.000000	79.274529 
2690.000000	79.272104 
2689.000000	79.269964 
2688.000000	79.268844 
2687.000000	79.269073 
2686.000000	79.270334 
2685.000000	79.271889 
2684.000000	79.272958 
2683.000000	79.273038 
2682.000000	79.272089 
2681.000000	79.270580 
2680.000000	79.269205 
2679.000000	79.268304 
2678.000000	79.267603 
2677.000000	79.266725 
2676.000000	79.265815 
2675.000000	79.265244 
2674.000000	79.264786 
2673.000000	79.263744 
2672.000000	79.262017 
2671.000000	79.260451 
2670.000000	79.259770 
2669.000000	79.259654 
2668.000000	79.259227 
2667.000000	79.258142 
2666.000000	79.256787 
2665.000000	79.255716 
2664.000000	79.255160 
2663.000000	79.255033 
2662.000000	79.255105 
2661.000000	79.255085 
2660.000000	79.254785 
2659.000000	79.254271 
2658.000000	79.253739 
2657.000000	79.253298 
2656.000000	79.252883 
2655.000000	79.252404 
2654.000000	79.251893 
2653.000000	79.251446 
2652.000000	79.251090 
2651.000000	79.250777 
2650.000000	79.250455 
2649.000000	79.250118 
2648.000000	79.249784 
2647.000000	79.249458 
2646.000000	79.249128 
2645.000000	79.248775 
2644.000000	79.248387 
2643.000000	79.247962 
2642.000000	79.247500 
2641.000000	79.247010 
2640.000000	79.246506 
2639.000000	79.246004 
2638.000000	79.245515 
2637.000000	79.245029 
2636.000000	79.244525 
2635.000000	79.243993 
2634.000000	79.243448 
2633.000000	79.242927 
2632.000000	79.242457 
2631.000000	79.242033 
2630.000000	79.241624 
2629.000000	79.241206 
2628.000000	79.240771 
2627.000000	79.240318 
2626.000000	79.239866 
2625.000000	79.239456 
2624.000000	79.239102 
2623.000000	79.238747 
2622.000000	79.238281 
2621.000000	79.237622 
2620.000000	79.236836 
2619.000000	79.236170 
2618.000000	79.235869 
2617.000000	79.235833 
2616.000000	79.235564 
2615.000000	79.234676 
2614.000000	79.233286 
2613.000000	79.231879 
2612.000000	79.230729 
2611.000000	79.229738 
2610.000000	79.228842 
2609.000000	79.228291 
2608.000000	79.228319 
2607.000000	79.228665 
2606.000000	79.228634 
2605.000000	79.227726 
2604.000000	79.226046 
2603.000000	79.224039 
2602.000000	79.221948 
2601.000000	79.219850 
2600.000000	79.218255 
2599.000000	79.218141 
2598.000000	79.219957 
2597.000000	79.222763 
2596.000000	79.224893 
2595.000000	79.225634 
2594.000000	79.225605 
2593.000000	79.225551 
2592.000000	79.225392 
2591.000000	79.224755 
2590.000000	79.223777 
2589.000000	79.222887 
2588.000000	79.222183 
2587.000000	79.221443 
2586.000000	79.220404 
2585.000000	79.218729 
2584.000000	79.216163 
2583.000000	79.213056 
2582.000000	79.210307 
2581.000000	79.208337 
2580.000000	79.206674 
2579.000000	79.205073 
2578.000000	79.204397 
2577.000000	79.205704 
2576.000000	79.208854 
2575.000000	79.212468 
2574.000000	79.215194 
2573.000000	79.216579 
2572.000000	79.216877 
2571.000000	79.216688 
2570.000000	79.216661 
2569.000000	79.217025 
2568.000000	79.217346 
2567.000000	79.216997 
2566.000000	79.215915 
2565.000000	79.214728 
2564.000000	79.214140 
2563.000000	79.214263 
2562.000000	79.214561 
2561.000000	79.214354 
2560.000000	79.213374 
2559.000000	79.211850 
2558.000000	79.210194 
2557.000000	79.208799 
2556.000000	79.208040 
2555.000000	79.208108 
2554.000000	79.208626 
2553.000000	79.208730 
2552.000000	79.207918 
2551.000000	79.206644 
2550.000000	79.205773 
2549.000000	79.205590 
2548.000000	79.205654 
2547.000000	79.205498 
2546.000000	79.205139 
2545.000000	79.204811 
2544.000000	79.204500 
2543.000000	79.203936 
2542.000000	79.202974 
2541.000000	79.201824 
2540.000000	79.200915 
2539.000000	79.200501 
2538.000000	79.200379 
2537.000000	79.200012 
2536.000000	79.199010 
2535.000000	79.197435 
2534.000000	79.195726 
2533.000000	79.194334 
2532.000000	79.193428 
2531.000000	79.192965 
2530.000000	79.192754 
2529.000000	79.192485 
2528.000000	79.191909 
2527.000000	79.191088 
2526.000000	79.190298 
2525.000000	79.189636 
2524.000000	79.188970 
2523.000000	79.188336 
2522.000000	79.188061 
2521.000000	79.188269 
2520.000000	79.188500 
2519.000000	79.188115 
2518.000000	79.186928 
2517.000000	79.185231 
2516.000000	79.183439 
2515.000000	79.181831 
2514.000000	79.180488 
2513.000000	79.179310 
2512.000000	79.178208 
2511.000000	79.177365 
2510.000000	79.177024 
2509.000000	79.176974 
2508.000000	79.176687 
2507.000000	79.176029 
2506.000000	79.175296 
2505.000000	79.174414 
2504.000000	79.172758 
2503.000000	79.170174 
2502.000000	79.167520 
2501.000000	79.165656 
2500.000000	79.164438 
2499.000000	79.163344 
2498.000000	79.162550 
2497.000000	79.162559 
2496.000000	79.163057 
2495.000000	79.163060 
2494.000000	79.162077 
2493.000000	79.160323 
2492.000000	79.158042 
2491.000000	79.155392 
2490.000000	79.152997 
2489.000000	79.151659 
2488.000000	79.151479 
2487.000000	79.151845 
2486.000000	79.152146 
2485.000000	79.152071 
2484.000000	79.151340 
2483.000000	79.149813 
2482.000000	79.147904 
2481.000000	79.146363 
2480.000000	79.145487 
2479.000000	79.144880 
2478.000000	79.144025 
2477.000000	79.142807 
2476.000000	79.141528 
2475.000000	79.140680 
2474.000000	79.140557 
2473.000000	79.140882 
2472.000000	79.141006 
2471.000000	79.140768 
2470.000000	79.140832 
2469.000000	79.141812 
2468.000000	79.143289 
2467.000000	79.144125 
2466.000000	79.143683 
2465.000000	79.142309 
2464.000000	79.140794 
2463.000000	79.139657 
2462.000000	79.138901 
2461.000000	79.138167 
2460.000000	79.137090 
2459.000000	79.135625 
2458.000000	79.134012 
2457.000000	79.132407 
2456.000000	79.130768 
2455.000000	79.129248 
2454.000000	79.128306 
2453.000000	79.128133 
2452.000000	79.128127 
2451.000000	79.127378 
2450.000000	79.125720 
2449.000000	79.124044 
2448.000000	79.123457 
2447.000000	79.124272 
2446.000000	79.125834 
2445.000000	79.127108 
2444.000000	79.127567 
2443.000000	79.127357 
2442.000000	79.126689 
2441.000000	79.125362 
2440.000000	79.123179 
2439.000000	79.120648 
2438.000000	79.118783 
2437.000000	79.118040 
2436.000000	79.117853 
2435.000000	79.117403 
2434.000000	79.116633 
2433.000000	79.116153 
2432.000000	79.116373 
2431.000000	79.117141 
2430.000000	79.118001 
2429.000000	79.118394 
2428.000000	79.117782 
2427.000000	79.116039 
2426.000000	79.113768 
2425.000000	79.111896 
2424.000000	79.110837 
2423.000000	79.110269 
2422.000000	79.109594 
2421.000000	79.108422 
2420.000000	79.106788 
2419.000000	79.105280 
2418.000000	79.104790 
2417.000000	79.105788 
2416.000000	79.107837 
2415.000000	79.109864 
2414.000000	79.110849 
2413.000000	79.110206 
2412.000000	79.108168 
2411.000000	79.106084 
2410.000000	79.105652 
2409.000000	79.107219 
2408.000000	79.109089 
2407.000000	79.109274 
2406.000000	79.107761 
2405.000000	79.106150 
2404.000000	79.105495 
2403.000000	79.105449 
2402.000000	79.105491 
2401.000000	79.105710 
2400.000000	79.106083 
2399.000000	79.105975 
2398.000000	79.104834 
2397.000000	79.102836 
2396.000000	79.100494 
2395.000000	79.098109 
2394.000000	79.095771 
2393.000000	79.093563 
2392.000000	79.091506 
2391.000000	79.089518 
2390.000000	79.087537 
2389.000000	79.085548 
2388.000000	79.083468 
2387.000000	79.081077 
2386.000000	79.078093 
2385.000000	79.074429 
2384.000000	79.070611 
2383.000000	79.067815 
2382.000000	79.066992 
2381.000000	79.067845 
2380.000000	79.069067 
2379.000000	79.069820 
2378.000000	79.070312 
2377.000000	79.070610 
2376.000000	79.069834 
2375.000000	79.067485 
2374.000000	79.064840 
2373.000000	79.063556 
2372.000000	79.063084 
2371.000000	79.061032 
2370.000000	79.056172 
2369.000000	79.049743 
2368.000000	79.043776 
2367.000000	79.039396 
2366.000000	79.037412 
2365.000000	79.038798 
2364.000000	79.043178 
2363.000000	79.047705 
2362.000000	79.049643 
2361.000000	79.049034 
2360.000000	79.047527 
2359.000000	79.046260 
2358.000000	79.045092 
2357.000000	79.044029 
2356.000000	79.043821 
2355.000000	79.044455 
2354.000000	79.044684 
2353.000000	79.043464 
2352.000000	79.041669 
2351.000000	79.040811 
2350.000000	79.040841 
2349.000000	79.040774 
2348.000000	79.039988 
2347.000000	79.039160 
2346.000000	79.039090 
2345.000000	79.039411 
2344.000000	79.039162 
2343.000000	79.037936 
2342.000000	79.036656 
2341.000000	79.035872 
2340.000000	79.035476 
2339.000000	79.035728 
2338.000000	79.037343 
2337.000000	79.040199 
2336.000000	79.042718 
2335.000000	79.043203 
2334.000000	79.041621 
2333.000000	79.039426 
2332.000000	79.038112 
2331.000000	79.037571 
2330.000000	79.036067 
2329.000000	79.032497 
2328.000000	79.027322 
2327.000000	79.023127 
2326.000000	79.022248 
2325.000000	79.024915 
2324.000000	79.029236 
2323.000000	79.032544 
2322.000000	79.034239 
2321.000000	79.035273 
2320.000000	79.036834 
2319.000000	79.039037 
2318.000000	79.041411 
2317.000000	79.043483 
2316.000000	79.044828 
2315.000000	79.045363 
2314.000000	79.045372 
2313.000000	79.045207 
2312.000000	79.044451 
2311.000000	79.042412 
2310.000000	79.039025 
2309.000000	79.035247 
2308.000000	79.032106 
2307.000000	79.030034 
2306.000000	79.029161 
2305.000000	79.029812 
2304.000000	79.032348 
2303.000000	79.036414 
2302.000000	79.040715 
2301.000000	79.043669 
2300.000000	79.044493 
2299.000000	79.043769 
2298.000000	79.042843 
2297.000000	79.042715 
2296.000000	79.043277 
2295.000000	79.043845 
2294.000000	79.043919 
2293.000000	79.043547 
2292.000000	79.043098 
2291.000000	79.043001 
2290.000000	79.043475 
2289.000000	79.044271 
2288.000000	79.044875 
2287.000000	79.045086 
2286.000000	79.045296 
2285.000000	79.045871 
2284.000000	79.046558 
2283.000000	79.046844 
2282.000000	79.046851 
2281.000000	79.047304 
2280.000000	79.048576 
2279.000000	79.050060 
2278.000000	79.050795 
2277.000000	79.050561 
2276.000000	79.050152 
2275.000000	79.050498 
2274.000000	79.051473 
2273.000000	79.051844 
2272.000000	79.050561 
2271.000000	79.047919 
2270.000000	79.045399 
2269.000000	79.044259 
2268.000000	79.044465 
2267.000000	79.045076 
2266.000000	79.045287 
2265.000000	79.044949 
2264.000000	79.044190 
2263.000000	79.043117 
2262.000000	79.042041 
2261.000000	79.041615 
2260.000000	79.042341 
2259.000000	79.043972 
2258.000000	79.045671 
2257.000000	79.046823 
2256.000000	79.047524 
2255.000000	79.048119 
2254.000000	79.048615 
2253.000000	79.048811 
2252.000000	79.048770 
2251.000000	79.048771 
2250.000000	79.048754 
2249.000000	79.048351 
2248.000000	79.047521 
2247.000000	79.046750 
2246.000000	79.046416 
2245.000000	79.046318 
2244.000000	79.046210 
2243.000000	79.046417 
2242.000000	79.047367 
2241.000000	79.048766 
2240.000000	79.049707 
2239.000000	79.049741 
2238.000000	79.049307 
2237.000000	79.049140 
2236.000000	79.049381 
2235.000000	79.049624 
2234.000000	79.049601 
2233.000000	79.049455 
2232.000000	79.049435 
2231.000000	79.049584 
2230.000000	79.049780 
2229.000000	79.049896 
2228.000000	79.049873 
2227.000000	79.049736 
2226.000000	79.049622 
2225.000000	79.049710 
2224.000000	79.050074 
2223.000000	79.050633 
2222.000000	79.051219 
2221.000000	79.051680 
2220.000000	79.051963 
2219.000000	79.052110 
2218.000000	79.052210 
2217.000000	79.052347 
2216.000000	79.052547 
2215.000000	79.052772 
2214.000000	79.052953 
2213.000000	79.053064 
2212.000000	79.053142 
2211.000000	79.053252 
2210.000000	79.053432 
2209.000000	79.053687 
2208.000000	79.054020 
2207.000000	79.054419 
2206.000000	79.054788 
2205.000000	79.054957 
2204.000000	79.054845 
2203.000000	79.054544 
2202.000000	79.054260 
2201.000000	79.054128 
2200.000000	79.054172 
2199.000000	79.054385 
2198.000000	79.054740 
2197.000000	79.055139 
2196.000000	79.055426 
2195.000000	79.055530 
2194.000000	79.055552 
2193.000000	79.055676 
2192.000000	79.055999 
2191.000000	79.056449 
2190.000000	79.056836 
2189.000000	79.057002 
2188.000000	79.056983 
2187.000000	79.057042 
2186.000000	79.057430 
2185.000000	79.058094 
2184.000000	79.058670 
2183.000000	79.058880 
2182.000000	79.058812 
2181.000000	79.058747 
2180.000000	79.058812 
2179.000000	79.058920 
2178.000000	79.058956 
2177.000000	79.058838 
2176.000000	79.058514 
2175.000000	79.058123 
2174.000000	79.058041 
2173.000000	79.058504 
2172.000000	79.059260 
2171.000000	79.059825 
2170.000000	79.060100 
2169.000000	79.060451 
2168.000000	79.061184 
2167.000000	79.062174 
2166.000000	79.063044 
2165.000000	79.063537 
2164.000000	79.063624 
2163.000000	79.063400 
2162.000000	79.062933 
2161.000000	79.062226 
2160.000000	79.061399 
2159.000000	79.060875 
2158.000000	79.061147 
2157.000000	79.062179 
2156.000000	79.063208 
2155.000000	79.063448 
2154.000000	79.062896 
2153.000000	79.062205 
2152.000000	79.061815 
2151.000000	79.061451 
2150.000000	79.060636 
2149.000000	79.059372 
2148.000000	79.058179 
2147.000000	79.057534 
2146.000000	79.057430 
2145.000000	79.057507 
2144.000000	79.057552 
2143.000000	79.057665 
2142.000000	79.057883 
2141.000000	79.057894 
2140.000000	79.057364 
2139.000000	79.056411 
2138.000000	79.055552 
2137.000000	79.055162 
2136.000000	79.055187 
2135.000000	79.055369 
2134.000000	79.055512 
2133.000000	79.055512 
2132.000000	79.055330 
2131.000000	79.055023 
2130.000000	79.054719 
2129.000000	79.054493 
2128.000000	79.054334 
2127.000000	79.054206 
2126.000000	79.054076 
2125.000000	79.053908 
2124.000000	79.053703 
2123.000000	79.053511 
2122.000000	79.053364 
2121.000000	79.053251 
2120.000000	79.053156 
2119.000000	79.053076 
2118.000000	79.053010 
2117.000000	79.052954 
2116.000000	79.052904 
2115.000000	79.052863 
2114.000000	79.052835 
2113.000000	79.052824 
2112.000000	79.052831 
2111.000000	79.052851 
2110.000000	79.052882 
2109.000000	79.052922 
2108.000000	79.052971 
2107.000000	79.053033 
2106.000000	79.053105 
2105.000000	79.053186 
2104.000000	79.053268 
2103.000000	79.053350 
2102.000000	79.053433 
2101.000000	79.053522 
2100.000000	79.053625 
2099.000000	79.053745 
2098.000000	79.053878 
2097.000000	79.054021 
2096.000000	79.054166 
2095.000000	79.054309 
2094.000000	79.054451 
2093.000000	79.054590 
2092.000000	79.054725 
2091.000000	79.054858 
2090.000000	79.054994 
2089.000000	79.055135 
2088.000000	79.055286 
2087.000000	79.055450 
2086.000000	79.055636 
2085.000000	79.055829 
2084.000000	79.055994 
2083.000000	79.056100 
2082.000000	79.056177 
2081.000000	79.056292 
2080.000000	79.056446 
2079.000000	79.056581 
2078.000000	79.056715 
2077.000000	79.056912 
2076.000000	79.057104 
2075.000000	79.057135 
2074.000000	79.057003 
2073.000000	79.056858 
2072.000000	79.056738 
2071.000000	79.056535 
2070.000000	79.056246 
2069.000000	79.056051 
2068.000000	79.056058 
2067.000000	79.056195 
2066.000000	79.056406 
2065.000000	79.056723 
2064.000000	79.057011 
2063.000000	79.056933 
2062.000000	79.056356 
2061.000000	79.055610 
2060.000000	79.055144 
2059.000000	79.055000 
2058.000000	79.054857 
2057.000000	79.054483 
2056.000000	79.053971 
2055.000000	79.053541 
2054.000000	79.053315 
2053.000000	79.053319 
2052.000000	79.053549 
2051.000000	79.053962 
2050.000000	79.054472 
2049.000000	79.054974 
2048.000000	79.055284 
2047.000000	79.055089 
2046.000000	79.054093 
2045.000000	79.052337 
2044.000000	79.050337 
2043.000000	79.048781 
2042.000000	79.048010 
2041.000000	79.047785 
2040.000000	79.047533 
2039.000000	79.046941 
2038.000000	79.046305 
2037.000000	79.046221 
2036.000000	79.046968 
2035.000000	79.048198 
2034.000000	79.049166 
2033.000000	79.049345 
2032.000000	79.048822 
2031.000000	79.048130 
2030.000000	79.047671 
2029.000000	79.047319 
2028.000000	79.046655 
2027.000000	79.045510 
2026.000000	79.044166 
2025.000000	79.043079 
2024.000000	79.042442 
2023.000000	79.042109 
2022.000000	79.041834 
2021.000000	79.041508 
2020.000000	79.041128 
2019.000000	79.040609 
2018.000000	79.039795 
2017.000000	79.038765 
2016.000000	79.038047 
2015.000000	79.038267 
2014.000000	79.039562 
2013.000000	79.041386 
2012.000000	79.042865 
2011.000000	79.043404 
2010.000000	79.042919 
2009.000000	79.041720 
2008.000000	79.040361 
2007.000000	79.039366 
2006.000000	79.038878 
2005.000000	79.038633 
2004.000000	79.038350 
2003.000000	79.038105 
2002.000000	79.038123 
2001.000000	79.038330 
2000.000000	79.038371 
1999.000000	79.037997 
1998.000000	79.037260 
1997.000000	79.036363 
1996.000000	79.035578 
1995.000000	79.035185 
1994.000000	79.035245 
1993.000000	79.035386 
1992.000000	79.035148 
1991.000000	79.034632 
1990.000000	79.034423 
1989.000000	79.034805 
1988.000000	79.035449 
1987.000000	79.035904 
1986.000000	79.036106 
1985.000000	79.036240 
1984.000000	79.036391 
1983.000000	79.036574 
1982.000000	79.036859 
1981.000000	79.037229 
1980.000000	79.037423 
1979.000000	79.037155 
1978.000000	79.036484 
1977.000000	79.035845 
1976.000000	79.035669 
1975.000000	79.036044 
1974.000000	79.036699 
1973.000000	79.037236 
1972.000000	79.037450 
1971.000000	79.037454 
1970.000000	79.037497 
1969.000000	79.037628 
1968.000000	79.037634 
1967.000000	79.037379 
1966.000000	79.037083 
1965.000000	79.037134 
1964.000000	79.037664 
1963.000000	79.038478 
1962.000000	79.039350 
1961.000000	79.040228 
1960.000000	79.041073 
1959.000000	79.041687 
1958.000000	79.041885 
1957.000000	79.041747 
1956.000000	79.041570 
1955.000000	79.041491 
1954.000000	79.041410 
1953.000000	79.041247 
1952.000000	79.041121 
1951.000000	79.041225 
1950.000000	79.041576 
1949.000000	79.041980 
1948.000000	79.042260 
1947.000000	79.042441 
1946.000000	79.042657 
1945.000000	79.042938 
1944.000000	79.043163 
1943.000000	79.043229 
1942.000000	79.043205 
1941.000000	79.043270 
1940.000000	79.043518 
1939.000000	79.043907 
1938.000000	79.044340 
1937.000000	79.044712 
1936.000000	79.044929 
1935.000000	79.044961 
1934.000000	79.044905 
1933.000000	79.044960 
1932.000000	79.045221 
1931.000000	79.045576 
1930.000000	79.045803 
1929.000000	79.045814 
1928.000000	79.045731 
1927.000000	79.045754 
1926.000000	79.045968 
1925.000000	79.046251 
1924.000000	79.046443 
1923.000000	79.046567 
1922.000000	79.046825 
1921.000000	79.047336 
1920.000000	79.047939 
1919.000000	79.048288 
1918.000000	79.048136 
1917.000000	79.047532 
1916.000000	79.046848 
1915.000000	79.046489 
1914.000000	79.046600 
1913.000000	79.047020 
1912.000000	79.047456 
1911.000000	79.047802 
1910.000000	79.048132 
1909.000000	79.048414 
1908.000000	79.048402 
1907.000000	79.047935 
1906.000000	79.047194 
1905.000000	79.046479 
1904.000000	79.046048 
1903.000000	79.046125 
1902.000000	79.046800 
1901.000000	79.047830 
1900.000000	79.048729 
1899.000000	79.049208 
1898.000000	79.049377 
1897.000000	79.049390 
1896.000000	79.049245 
1895.000000	79.049057 
1894.000000	79.049257 
1893.000000	79.050183 
1892.000000	79.051643 
1891.000000	79.053023 
1890.000000	79.053786 
1889.000000	79.053855 
1888.000000	79.053624 
1887.000000	79.053621 
1886.000000	79.054164 
1885.000000	79.055270 
1884.000000	79.056799 
1883.000000	79.058548 
1882.000000	79.060142 
1881.000000	79.061191 
1880.000000	79.061703 
1879.000000	79.062186 
1878.000000	79.063169 
1877.000000	79.064608 
1876.000000	79.066086 
1875.000000	79.067501 
1874.000000	79.069090 
1873.000000	79.070821 
1872.000000	79.072242 
1871.000000	79.073077 
1870.000000	79.073634 
1869.000000	79.074452 
1868.000000	79.075656 
1867.000000	79.077016 
1866.000000	79.078378 
1865.000000	79.079736 
1864.000000	79.081121 
1863.000000	79.082601 
1862.000000	79.084211 
1861.000000	79.085840 
1860.000000	79.087337 
1859.000000	79.088751 
1858.000000	79.090259 
1857.000000	79.091832 
1856.000000	79.093217 
1855.000000	79.094354 
1854.000000	79.095475 
1853.000000	79.096808 
1852.000000	79.098337 
1851.000000	79.099820 
1850.000000	79.101101 
1849.000000	79.102235 
1848.000000	79.103370 
1847.000000	79.104539 
1846.000000	79.105660 
1845.000000	79.106778 
1844.000000	79.108114 
1843.000000	79.109784 
1842.000000	79.111601 
1841.000000	79.113280 
1840.000000	79.114696 
1839.000000	79.115951 
1838.000000	79.117241 
1837.000000	79.118579 
1836.000000	79.119892 
1835.000000	79.121196 
1834.000000	79.122433 
1833.000000	79.123568 
1832.000000	79.124872 
1831.000000	79.126699 
1830.000000	79.128882 
1829.000000	79.130506 
1828.000000	79.131154 
1827.000000	79.131358 
1826.000000	79.131475 
1825.000000	79.131106 
1824.000000	79.130119 
1823.000000	79.129816 
1822.000000	79.131903 
1821.000000	79.136561 
1820.000000	79.141882 
1819.000000	79.145642 
1818.000000	79.147272 
1817.000000	79.147517 
1816.000000	79.147812 
1815.000000	79.149502 
1814.000000	79.152447 
1813.000000	79.154462 
1812.000000	79.153479 
1811.000000	79.151250 
1810.000000	79.151772 
1809.000000	79.155631 
1808.000000	79.159561 
1807.000000	79.162098 
1806.000000	79.165997 
1805.000000	79.173077 
1804.000000	79.180293 
1803.000000	79.182841 
1802.000000	79.180207 
1801.000000	79.177262 
1800.000000	79.177427 
1799.000000	79.180116 
1798.000000	79.183922 
1797.000000	79.188151 
1796.000000	79.192344 
1795.000000	79.196780 
1794.000000	79.202347 
1793.000000	79.208456 
1792.000000	79.211772 
1791.000000	79.211055 
1790.000000	79.210120 
1789.000000	79.213549 
1788.000000	79.222710 
1787.000000	79.235541 
1786.000000	79.247992 
1785.000000	79.256142 
1784.000000	79.259623 
1783.000000	79.261609 
1782.000000	79.264801 
1781.000000	79.268863 
1780.000000	79.270095 
1779.000000	79.268354 
1778.000000	79.268309 
1777.000000	79.273072 
1776.000000	79.280638 
1775.000000	79.288150 
1774.000000	79.297222 
1773.000000	79.311427 
1772.000000	79.327152 
1771.000000	79.337745 
1770.000000	79.346668 
1769.000000	79.360451 
1768.000000	79.378915 
1767.000000	79.397159 
1766.000000	79.413054 
1765.000000	79.429347 
1764.000000	79.448033 
1763.000000	79.467753 
1762.000000	79.486344 
1761.000000	79.503273 
1760.000000	79.518626 
1759.000000	79.533927 
1758.000000	79.550858 
1757.000000	79.569729 
1756.000000	79.587646 
1755.000000	79.602217 
1754.000000	79.615158 
1753.000000	79.627709 
1752.000000	79.636459 
1751.000000	79.639390 
1750.000000	79.642270 
1749.000000	79.650999 
1748.000000	79.664120 
1747.000000	79.675832 
1746.000000	79.685574 
1745.000000	79.697848 
1744.000000	79.713129 
1743.000000	79.726848 
1742.000000	79.736532 
1741.000000	79.745208 
1740.000000	79.754983 
1739.000000	79.762276 
1738.000000	79.763230 
1737.000000	79.758579 
1736.000000	79.747173 
1735.000000	79.724756 
1734.000000	79.694371 
1733.000000	79.669980 
1732.000000	79.661042 
1731.000000	79.664427 
1730.000000	79.672440 
1729.000000	79.677913 
1728.000000	79.677657 
1727.000000	79.672102 
1726.000000	79.663503 
1725.000000	79.653181 
1724.000000	79.640464 
1723.000000	79.626553 
1722.000000	79.613888 
1721.000000	79.603454 
1720.000000	79.593155 
1719.000000	79.579013 
1718.000000	79.557733 
1717.000000	79.530149 
1716.000000	79.503618 
1715.000000	79.485969 
1714.000000	79.478391 
1713.000000	79.474657 
1712.000000	79.467644 
1711.000000	79.455754 
1710.000000	79.441031 
1709.000000	79.424912 
1708.000000	79.407252 
1707.000000	79.388709 
1706.000000	79.371898 
1705.000000	79.356594 
1704.000000	79.340117 
1703.000000	79.321523 
1702.000000	79.303086 
1701.000000	79.292686 
1700.000000	79.292688 
1699.000000	79.292863 
1698.000000	79.293276 
1697.000000	79.301094 
1696.000000	79.314996 
1695.000000	79.324295 
1694.000000	79.322722 
1693.000000	79.315865 
1692.000000	79.310954 
1691.000000	79.311012 
1690.000000	79.314688 
1689.000000	79.318538 
1688.000000	79.319889 
1687.000000	79.318145 
1686.000000	79.316518 
1685.000000	79.319135 
1684.000000	79.322064 
1683.000000	79.317297 
1682.000000	79.310603 
1681.000000	79.309054 
1680.000000	79.313584 
1679.000000	79.321396 
1678.000000	79.330937 
1677.000000	79.342605 
1676.000000	79.354930 
1675.000000	79.362955 
1674.000000	79.364467 
1673.000000	79.364491 
1672.000000	79.366199 
1671.000000	79.369738 
1670.000000	79.375154 
1669.000000	79.383637 
1668.000000	79.393833 
1667.000000	79.400988 
1666.000000	79.402392 
1665.000000	79.400136 
1664.000000	79.398889 
1663.000000	79.401932 
1662.000000	79.407691 
1661.000000	79.414379 
1660.000000	79.421533 
1659.000000	79.428487 
1658.000000	79.435001 
1657.000000	79.441512 
1656.000000	79.446449 
1655.000000	79.446096 
1654.000000	79.440822 
1653.000000	79.435712 
1652.000000	79.433690 
1651.000000	79.436128 
1650.000000	79.440727 
1649.000000	79.446610 
1648.000000	79.451811 
1647.000000	79.453439 
1646.000000	79.451738 
1645.000000	79.451013 
1644.000000	79.452837 
1643.000000	79.455411 
1642.000000	79.456740 
1641.000000	79.456631 
1640.000000	79.455483 
1639.000000	79.453448 
1638.000000	79.450937 
1637.000000	79.449322 
1636.000000	79.449799 
1635.000000	79.450443 
1634.000000	79.449919 
1633.000000	79.448375 
1632.000000	79.446548 
1631.000000	79.445226 
1630.000000	79.445243 
1629.000000	79.447130 
1628.000000	79.450050 
1627.000000	79.451696 
1626.000000	79.450548 
1625.000000	79.447685 
1624.000000	79.445672 
1623.000000	79.445814 
1622.000000	79.446619 
1621.000000	79.446422 
1620.000000	79.445118 
1619.000000	79.443502 
1618.000000	79.442479 
1617.000000	79.442316 
1616.000000	79.442134 
1615.000000	79.441182 
1614.000000	79.439834 
1613.000000	79.438712 
1612.000000	79.438076 
1611.000000	79.437676 
1610.000000	79.437095 
1609.000000	79.436350 
1608.000000	79.435759 
1607.000000	79.435332 
1606.000000	79.434765 
1605.000000	79.434018 
1604.000000	79.433293 
1603.000000	79.432754 
1602.000000	79.432416 
1601.000000	79.432169 
1600.000000	79.431885 
1599.000000	79.431540 
1598.000000	79.431212 
1597.000000	79.430973 
1596.000000	79.430808 
1595.000000	79.430671 
1594.000000	79.430540 
1593.000000	79.430424 
1592.000000	79.430319 
1591.000000	79.430205 
1590.000000	79.430076 
1589.000000	79.429944 
1588.000000	79.429823 
1587.000000	79.429718 
1586.000000	79.429632 
1585.000000	79.429569 
1584.000000	79.429536 
1583.000000	79.429536 
1582.000000	79.429566 
1581.000000	79.429619 
1580.000000	79.429688 
1579.000000	79.429770 
1578.000000	79.429860 
1577.000000	79.429953 
1576.000000	79.430036 
1575.000000	79.430101 
1574.000000	79.430143 
1573.000000	79.430170 
1572.000000	79.430195 
1571.000000	79.430229 
1570.000000	79.430274 
1569.000000	79.430326 
1568.000000	79.430376 
1567.000000	79.430419 
1566.000000	79.430451 
1565.000000	79.430473 
1564.000000	79.430484 
1563.000000	79.430481 
1562.000000	79.430458 
1561.000000	79.430413 
1560.000000	79.430356 
1559.000000	79.430304 
1558.000000	79.430270 
1557.000000	79.430252 
1556.000000	79.430238 
1555.000000	79.430212 
1554.000000	79.430174 
1553.000000	79.430131 
1552.000000	79.430090 
1551.000000	79.430043 
1550.000000	79.429983 
1549.000000	79.429910 
1548.000000	79.429836 
1547.000000	79.429767 
1546.000000	79.429703 
1545.000000	79.429639 
1544.000000	79.429573 
1543.000000	79.429502 
1542.000000	79.429423 
1541.000000	79.429341 
1540.000000	79.429262 
1539.000000	79.429184 
1538.000000	79.429125 
1537.000000	79.429116 
1536.000000	79.429147 
1535.000000	79.429134 
1534.000000	79.429035 
1533.000000	79.428976 
1532.000000	79.429038 
1531.000000	79.429159 
1530.000000	79.429288 
1529.000000	79.429491 
1528.000000	79.429842 
1527.000000	79.430308 
1526.000000	79.430768 
1525.000000	79.431155 
1524.000000	79.431458 
1523.000000	79.431788 
1522.000000	79.432405 
1521.000000	79.433317 
1520.000000	79.434152 
1519.000000	79.434806 
1518.000000	79.435534 
1517.000000	79.436370 
1516.000000	79.436935 
1515.000000	79.437174 
1514.000000	79.437530 
1513.000000	79.438346 
1512.000000	79.439438 
1511.000000	79.440336 
1510.000000	79.440690 
1509.000000	79.440437 
1508.000000	79.439910 
1507.000000	79.440105 
1506.000000	79.441109 
1505.000000	79.442138 
1504.000000	79.442841 
1503.000000	79.443449 
1502.000000	79.444353 
1501.000000	79.445700 
1500.000000	79.447502 
1499.000000	79.449960 
1498.000000	79.453293 
1497.000000	79.456643 
1496.000000	79.458062 
1495.000000	79.456959 
1494.000000	79.454849 
1493.000000	79.453494 
1492.000000	79.453398 
1491.000000	79.454341 
1490.000000	79.455851 
1489.000000	79.457229 
1488.000000	79.457899 
1487.000000	79.458416 
1486.000000	79.459678 
1485.000000	79.461412 
1484.000000	79.462659 
1483.000000	79.462706 
1482.000000	79.461877 
1481.000000	79.461109 
1480.000000	79.461397 
1479.000000	79.463358 
1478.000000	79.466849 
1477.000000	79.470072 
1476.000000	79.470301 
1475.000000	79.466439 
1474.000000	79.460593 
1473.000000	79.457033 
1472.000000	79.456894 
1471.000000	79.457616 
1470.000000	79.458403 
1469.000000	79.460202 
1468.000000	79.462328 
1467.000000	79.463280 
1466.000000	79.464209 
1465.000000	79.469112 
1464.000000	79.477972 
1463.000000	79.485810 
1462.000000	79.490841 
1461.000000	79.495898 
1460.000000	79.503909 
1459.000000	79.514148 
1458.000000	79.522135 
1457.000000	79.521810 
1456.000000	79.511107 
1455.000000	79.495645 
1454.000000	79.484115 
1453.000000	79.482489 
1452.000000	79.488491 
1451.000000	79.495579 
1450.000000	79.502189 
1449.000000	79.512268 
1448.000000	79.525596 
1447.000000	79.535343 
1446.000000	79.538022 
1445.000000	79.539247 
1444.000000	79.542874 
1443.000000	79.546314 
1442.000000	79.546767 
1441.000000	79.546347 
1440.000000	79.548741 
1439.000000	79.554186 
1438.000000	79.560007 
1437.000000	79.563022 
1436.000000	79.562280 
1435.000000	79.558984 
1434.000000	79.557274 
1433.000000	79.560180 
1432.000000	79.565847 
1431.000000	79.569300 
1430.000000	79.567462 
1429.000000	79.560641 
1428.000000	79.550969 
1427.000000	79.540954 
1426.000000	79.531990 
1425.000000	79.524085 
1424.000000	79.515351 
1423.000000	79.504783 
1422.000000	79.494047 
1421.000000	79.484124 
1420.000000	79.470916 
1419.000000	79.447712 
1418.000000	79.415081 
1417.000000	79.381911 
1416.000000	79.354612 
1415.000000	79.332327 
1414.000000	79.310786 
1413.000000	79.287428 
1412.000000	79.263595 
1411.000000	79.242846 
1410.000000	79.227683 
1409.000000	79.218467 
1408.000000	79.214592 
1407.000000	79.214846 
1406.000000	79.217411 
1405.000000	79.223257 
1404.000000	79.235910 
1403.000000	79.255935 
1402.000000	79.279508 
1401.000000	79.302971 
1400.000000	79.324182 
1399.000000	79.339125 
1398.000000	79.339414 
1397.000000	79.316369 
1396.000000	79.271017 
1395.000000	79.224587 
1394.000000	79.210079 
1393.000000	79.241411 
1392.000000	79.302644 
1391.000000	79.366087 
1390.000000	79.412392 
1389.000000	79.437412 
1388.000000	79.448076 
1387.000000	79.454657 
1386.000000	79.463276 
1385.000000	79.474802 
1384.000000	79.487820 
1383.000000	79.501063 
1382.000000	79.515081 
1381.000000	79.531759 
1380.000000	79.551162 
1379.000000	79.570737 
1378.000000	79.589240 
1377.000000	79.608973 
1376.000000	79.632305 
1375.000000	79.657415 
1374.000000	79.679933 
1373.000000	79.698286 
1372.000000	79.714119 
1371.000000	79.729028 
1370.000000	79.743701 
1369.000000	79.759252 
1368.000000	79.777127 
1367.000000	79.796333 
1366.000000	79.813065 
1365.000000	79.824117 
1364.000000	79.829155 
1363.000000	79.831021 
1362.000000	79.833527 
1361.000000	79.837232 
1360.000000	79.839856 
1359.000000	79.841527 
1358.000000	79.846485 
1357.000000	79.858253 
1356.000000	79.874273 
1355.000000	79.887746 
1354.000000	79.895306 
1353.000000	79.899636 
1352.000000	79.902996 
1351.000000	79.903563 
1350.000000	79.900638 
1349.000000	79.897551 
1348.000000	79.896712 
1347.000000	79.896642 
1346.000000	79.895679 
1345.000000	79.894586 
1344.000000	79.893806 
1343.000000	79.890982 
1342.000000	79.883345 
1341.000000	79.870967 
1340.000000	79.856905 
1339.000000	79.844747 
1338.000000	79.835740 
1337.000000	79.828564 
1336.000000	79.821441 
1335.000000	79.813953 
1334.000000	79.807472 
1333.000000	79.803505 
1332.000000	79.801529 
1331.000000	79.799732 
1330.000000	79.797467 
1329.000000	79.795517 
1328.000000	79.794677 
1327.000000	79.795592 
1326.000000	79.798654 
1325.000000	79.801917 
1324.000000	79.801216 
1323.000000	79.794075 
1322.000000	79.783348 
1321.000000	79.774871 
1320.000000	79.771319 
1319.000000	79.769999 
1318.000000	79.767209 
1317.000000	79.763096 
1316.000000	79.760546 
1315.000000	79.760760 
1314.000000	79.761949 
1313.000000	79.762039 
1312.000000	79.760697 
1311.000000	79.758090 
1310.000000	79.753234 
1309.000000	79.745238 
1308.000000	79.736068 
1307.000000	79.730567 
1306.000000	79.732189 
1305.000000	79.738754 
1304.000000	79.743875 
1303.000000	79.742807 
1302.000000	79.736476 
1301.000000	79.729613 
1300.000000	79.725790 
1299.000000	79.724636 
1298.000000	79.723180 
1297.000000	79.718954 
1296.000000	79.712094 
1295.000000	79.705431 
1294.000000	79.702140 
1293.000000	79.702728 
1292.000000	79.704443 
1291.000000	79.703845 
1290.000000	79.699400 
1289.000000	79.691483 
1288.000000	79.681135 
1287.000000	79.669659 
1286.000000	79.658761 
1285.000000	79.650282 
1284.000000	79.645607 
1283.000000	79.644679 
1282.000000	79.644828 
1281.000000	79.641563 
1280.000000	79.632596 
1279.000000	79.620795 
1278.000000	79.611080 
1277.000000	79.604408 
1276.000000	79.596905 
1275.000000	79.585422 
1274.000000	79.571120 
1273.000000	79.556549 
1272.000000	79.541884 
1271.000000	79.525940 
1270.000000	79.508762 
1269.000000	79.491235 
1268.000000	79.473895 
1267.000000	79.457775 
1266.000000	79.444434 
1265.000000	79.433433 
1264.000000	79.421389 
1263.000000	79.405263 
1262.000000	79.385347 
1261.000000	79.363837 
1260.000000	79.342459 
1259.000000	79.323038 
1258.000000	79.308293 
1257.000000	79.299998 
1256.000000	79.296846 
1255.000000	79.294860 
1254.000000	79.289063 
1253.000000	79.275445 
1252.000000	79.254786 
1251.000000	79.235949 
1250.000000	79.231283 
1249.000000	79.245586 
1248.000000	79.271299 
1247.000000	79.295679 
1246.000000	79.310249 
1245.000000	79.312008 
1244.000000	79.301506 
1243.000000	79.286231 
1242.000000	79.281827 
1241.000000	79.300810 
1240.000000	79.339030 
1239.000000	79.378189 
1238.000000	79.403718 
1237.000000	79.415906 
1236.000000	79.422874 
1235.000000	79.429694 
1234.000000	79.437359 
1233.000000	79.446335 
1232.000000	79.455375 
1231.000000	79.459629 
1230.000000	79.455381 
1229.000000	79.446027 
1228.000000	79.439378 
1227.000000	79.438703 
1226.000000	79.438719 
1225.000000	79.430853 
1224.000000	79.411766 
1223.000000	79.388045 
1222.000000	79.373948 
1221.000000	79.382625 
1220.000000	79.416207 
1219.000000	79.462246 
1218.000000	79.500747 
1217.000000	79.517156 
1216.000000	79.509814 
1215.000000	79.487834 
1214.000000	79.463561 
1213.000000	79.445099 
1212.000000	79.433436 
1211.000000	79.424674 
1210.000000	79.414238 
1209.000000	79.399881 
1208.000000	79.382680 
1207.000000	79.366323 
1206.000000	79.354232 
1205.000000	79.345641 
1204.000000	79.334911 
1203.000000	79.316109 
1202.000000	79.288077 
1201.000000	79.254448 
1200.000000	79.219879 
1199.000000	79.187461 
1198.000000	79.158240 
1197.000000	79.130999 
1196.000000	79.102814 
1195.000000	79.071541 
1194.000000	79.037871 
1193.000000	79.004515 
1192.000000	78.974490 
1191.000000	78.950352 
1190.000000	78.932597 
1189.000000	78.917396 
1188.000000	78.898295 
1187.000000	78.872548 
1186.000000	78.844437 
1185.000000	78.820409 
1184.000000	78.802621 
1183.000000	78.789039 
1182.000000	78.777247 
1181.000000	78.765024 
1180.000000	78.749321 
1179.000000	78.728718 
1178.000000	78.705763 
1177.000000	78.683073 
1176.000000	78.658048 
1175.000000	78.625618 
1174.000000	78.585929 
1173.000000	78.545395 
1172.000000	78.510071 
1171.000000	78.481481 
1170.000000	78.458314 
1169.000000	78.438326 
1168.000000	78.418288 
1167.000000	78.395664 
1166.000000	78.371913 
1165.000000	78.352316 
1164.000000	78.342056 
1163.000000	78.343740 
1162.000000	78.357341 
1161.000000	78.379167 
1160.000000	78.400989 
1159.000000	78.414028 
1158.000000	78.415590 
1157.000000	78.409819 
1156.000000	78.401476 
1155.000000	78.391175 
1154.000000	78.376727 
1153.000000	78.356102 
1152.000000	78.328448 
1151.000000	78.295207 
1150.000000	78.261406 
1149.000000	78.233343 
1148.000000	78.213326 
1147.000000	78.197561 
1146.000000	78.179592 
1145.000000	78.155088 
1144.000000	78.124333 
1143.000000	78.092345 
1142.000000	78.065975 
1141.000000	78.048015 
1140.000000	78.033592 
1139.000000	78.014088 
1138.000000	77.984947 
1137.000000	77.948695 
1136.000000	77.911239 
1135.000000	77.877093 
1134.000000	77.847496 
1133.000000	77.820409 
1132.000000	77.791766 
1131.000000	77.758450 
1130.000000	77.720472 
1129.000000	77.679573 
1128.000000	77.636974 
1127.000000	77.594257 
1126.000000	77.554814 
1125.000000	77.520901 
1124.000000	77.489407 
1123.000000	77.453718 
1122.000000	77.410958 
1121.000000	77.365840 
1120.000000	77.326694 
1119.000000	77.298257 
1118.000000	77.277315 
1117.000000	77.253889 
1116.000000	77.217813 
1115.000000	77.166838 
1114.000000	77.108894 
1113.000000	77.055028 
1112.000000	77.010335 
1111.000000	76.972430 
1110.000000	76.936549 
1109.000000	76.899636 
1108.000000	76.860865 
1107.000000	76.821852 
1106.000000	76.786924 
1105.000000	76.760648 
1104.000000	76.743863 
1103.000000	76.732943 
1102.000000	76.722843 
1101.000000	76.711504 
1100.000000	76.701255 
1099.000000	76.697633 
1098.000000	76.704029 
1097.000000	76.715579 
1096.000000	76.720275 
1095.000000	76.707336 
1094.000000	76.672652 
1093.000000	76.615507 
1092.000000	76.535593 
1091.000000	76.438035 
1090.000000	76.336547 
1089.000000	76.243021 
1088.000000	76.154644 
1087.000000	76.058811 
1086.000000	75.951334 
1085.000000	75.843163 
1084.000000	75.747033 
1083.000000	75.663258 
1082.000000	75.582077 
1081.000000	75.495845 
1080.000000	75.405009 
1079.000000	75.315212 
1078.000000	75.233761 
1077.000000	75.168327 
1076.000000	75.123960 
1075.000000	75.098811 
1074.000000	75.085069 
1073.000000	75.075490 
1072.000000	75.065841 
1071.000000	75.048475 
1070.000000	75.008045 
1069.000000	74.931972 
1068.000000	74.828789 
1067.000000	74.731651 
1066.000000	74.676309 
1065.000000	74.674331 
1064.000000	74.709190 
1063.000000	74.753676 
1062.000000	74.786082 
1061.000000	74.793306 
1060.000000	74.771677 
1059.000000	74.733859 
1058.000000	74.708117 
1057.000000	74.717935 
1056.000000	74.760276 
1055.000000	74.809400 
1054.000000	74.842303 
1053.000000	74.854009 
1052.000000	74.847548 
1051.000000	74.820049 
1050.000000	74.767080 
1049.000000	74.694338 
1048.000000	74.614905 
1047.000000	74.536639 
1046.000000	74.459117 
1045.000000	74.381654 
1044.000000	74.308626 
1043.000000	74.246114 
1042.000000	74.195498 
1041.000000	74.150615 
1040.000000	74.101742 
1039.000000	74.045983 
1038.000000	73.995470 
1037.000000	73.970539 
1036.000000	73.980559 
1035.000000	74.014121 
1034.000000	74.051170 
1033.000000	74.080440 
1032.000000	74.098238 
1031.000000	74.096379 
1030.000000	74.066780 
1029.000000	74.021339 
1028.000000	73.993889 
1027.000000	74.011345 
1026.000000	74.067077 
1025.000000	74.129626 
1024.000000	74.175049 
1023.000000	74.203079 
1022.000000	74.224301 
1021.000000	74.242905 
1020.000000	74.255978 
1019.000000	74.263250 
1018.000000	74.271196 
1017.000000	74.287945 
1016.000000	74.317360 
1015.000000	74.358272 
1014.000000	74.406904 
1013.000000	74.458551 
1012.000000	74.508012 
1011.000000	74.550894 
1010.000000	74.586696 
1009.000000	74.620181 
1008.000000	74.657539 
1007.000000	74.700694 
1006.000000	74.746345 
1005.000000	74.790527 
1004.000000	74.832784 
1003.000000	74.875707 
1002.000000	74.921454 
1001.000000	74.968970 
1000.000000	75.014367 
999.000000	 75.054774 
998.000000	 75.092298 
997.000000	 75.132549 
996.000000	 75.178160 
995.000000	 75.225749 
994.000000	 75.271052 
993.000000	 75.314768 
992.000000	 75.360687 
991.000000	 75.410047 
990.000000	 75.460794 
989.000000	 75.510840 
988.000000	 75.558720 
987.000000	 75.602857 
986.000000	 75.644601 
985.000000	 75.690771 
984.000000	 75.747736 
983.000000	 75.813607 
982.000000	 75.882184 
981.000000	 75.952876 
980.000000	 76.029934 
979.000000	 76.112208 
978.000000	 76.190960 
977.000000	 76.260643 
976.000000	 76.325854 
975.000000	 76.393925 
974.000000	 76.465506 
973.000000	 76.536472 
972.000000	 76.605370 
971.000000	 76.674585 
970.000000	 76.746386 
969.000000	 76.821406 
968.000000	 76.899167 
967.000000	 76.976949 
966.000000	 77.050032 
965.000000	 77.116624 
964.000000	 77.181444 
963.000000	 77.250713 
962.000000	 77.323299 
961.000000	 77.390303 
960.000000	 77.444869 
959.000000	 77.490011 
958.000000	 77.534655 
957.000000	 77.583200 
956.000000	 77.632291 
955.000000	 77.677906 
954.000000	 77.721033 
953.000000	 77.763374 
952.000000	 77.800968 
951.000000	 77.827886 
950.000000	 77.845754 
949.000000	 77.864028 
948.000000	 77.889625 
947.000000	 77.920994 
946.000000	 77.953730 
945.000000	 77.986190 
944.000000	 78.016524 
943.000000	 78.039937 
942.000000	 78.054613 
941.000000	 78.067130 
940.000000	 78.085964 
939.000000	 78.110487 
938.000000	 78.131367 
937.000000	 78.141667 
936.000000	 78.143564 
935.000000	 78.144508 
934.000000	 78.150722 
933.000000	 78.165016 
932.000000	 78.187076 
931.000000	 78.213447 
930.000000	 78.238684 
929.000000	 78.258670 
928.000000	 78.273282 
927.000000	 78.285757 
926.000000	 78.299257 
925.000000	 78.313593 
924.000000	 78.325487 
923.000000	 78.332562 
922.000000	 78.336129 
921.000000	 78.338765 
920.000000	 78.340957 
919.000000	 78.343198 
918.000000	 78.349860 
917.000000	 78.365654 
916.000000	 78.387334 
915.000000	 78.404099 
914.000000	 78.409325 
913.000000	 78.408724 
912.000000	 78.413888 
911.000000	 78.430221 
910.000000	 78.453685 
909.000000	 78.476540 
908.000000	 78.493664 
907.000000	 78.506384 
906.000000	 78.523215 
905.000000	 78.554202 
904.000000	 78.601555 
903.000000	 78.657376 
902.000000	 78.712293 
901.000000	 78.763620 
900.000000	 78.813068 
899.000000	 78.861295 
898.000000	 78.909202 
897.000000	 78.960224 
896.000000	 79.015153 
895.000000	 79.067280 
894.000000	 79.109295 
893.000000	 79.144518 
892.000000	 79.185875 
891.000000	 79.243590 
890.000000	 79.317472 
889.000000	 79.399821 
888.000000	 79.480523 
887.000000	 79.549561 
886.000000	 79.601317 
885.000000	 79.639381 
884.000000	 79.673664 
883.000000	 79.710428 
882.000000	 79.747000 
881.000000	 79.777254 
880.000000	 79.798924 
879.000000	 79.813218 
878.000000	 79.820344 
877.000000	 79.820066 
876.000000	 79.816585 
875.000000	 79.817478 
874.000000	 79.824034 
873.000000	 79.826217 
872.000000	 79.813580 
871.000000	 79.791602 
870.000000	 79.780995 
869.000000	 79.797088 
868.000000	 79.835002 
867.000000	 79.877927 
866.000000	 79.915440 
865.000000	 79.949152 
864.000000	 79.983871 
863.000000	 80.020764 
862.000000	 80.058594 
861.000000	 80.094802 
860.000000	 80.124383 
859.000000	 80.143549 
858.000000	 80.156114 
857.000000	 80.171104 
856.000000	 80.192740 
855.000000	 80.217902 
854.000000	 80.244143 
853.000000	 80.273068 
852.000000	 80.302765 
851.000000	 80.324176 
850.000000	 80.331291 
849.000000	 80.331112 
848.000000	 80.337798 
847.000000	 80.357837 
846.000000	 80.383882 
845.000000	 80.402050 
844.000000	 80.403758 
843.000000	 80.392752 
842.000000	 80.382565 
841.000000	 80.384991 
840.000000	 80.399367 
839.000000	 80.413735 
838.000000	 80.415968 
837.000000	 80.402840 
836.000000	 80.381407 
835.000000	 80.365658 
834.000000	 80.368098 
833.000000	 80.387136 
832.000000	 80.403826 
831.000000	 80.399259 
830.000000	 80.376808 
829.000000	 80.360533 
828.000000	 80.370006 
827.000000	 80.403666 
826.000000	 80.446949 
825.000000	 80.485122 
824.000000	 80.504208 
823.000000	 80.493443 
822.000000	 80.457462 
821.000000	 80.417057 
820.000000	 80.389296 
819.000000	 80.372999 
818.000000	 80.357663 
817.000000	 80.338388 
816.000000	 80.316302 
815.000000	 80.291219 
814.000000	 80.261963 
813.000000	 80.230963 
812.000000	 80.200827 
811.000000	 80.165623 
810.000000	 80.110105 
809.000000	 80.019541 
808.000000	 79.890664 
807.000000	 79.735407 
806.000000	 79.574875 
805.000000	 79.426748 
804.000000	 79.296635 
803.000000	 79.181027 
802.000000	 79.076303 
801.000000	 78.983173 
800.000000	 78.905587 
799.000000	 78.850427 
798.000000	 78.827125 
797.000000	 78.841462 
796.000000	 78.887491 
795.000000	 78.948167 
794.000000	 79.005861 
793.000000	 79.051653 
792.000000	 79.086164 
791.000000	 79.116309 
790.000000	 79.150777 
789.000000	 79.191803 
788.000000	 79.228590 
787.000000	 79.243685 
786.000000	 79.228805 
785.000000	 79.190877 
784.000000	 79.141711 
783.000000	 79.087413 
782.000000	 79.030390 
781.000000	 78.976464 
780.000000	 78.935533 
779.000000	 78.916962 
778.000000	 78.925961 
777.000000	 78.961728 
776.000000	 79.017130 
775.000000	 79.082469 
774.000000	 79.151404 
773.000000	 79.221906 
772.000000	 79.291739 
771.000000	 79.356398 
770.000000	 79.412244 
769.000000	 79.458700 
768.000000	 79.496900 
767.000000	 79.529248 
766.000000	 79.559732 
765.000000	 79.590576 
764.000000	 79.619060 
763.000000	 79.641980 
762.000000	 79.662149 
761.000000	 79.684859 
760.000000	 79.708539 
759.000000	 79.725574 
758.000000	 79.732970 
757.000000	 79.736220 
756.000000	 79.742066 
755.000000	 79.753434 
754.000000	 79.772017 
753.000000	 79.799570 
752.000000	 79.835456 
751.000000	 79.877590 
750.000000	 79.925473 
749.000000	 79.976739 
748.000000	 80.021915 
747.000000	 80.050918 
746.000000	 80.065842 
745.000000	 80.079432 
744.000000	 80.099081 
743.000000	 80.120790 
742.000000	 80.141181 
741.000000	 80.165382 
740.000000	 80.198357 
739.000000	 80.236927 
738.000000	 80.275616 
737.000000	 80.313218 
736.000000	 80.348118 
735.000000	 80.373716 
734.000000	 80.384952 
733.000000	 80.385456 
732.000000	 80.383945 
731.000000	 80.386853 
730.000000	 80.397753 
729.000000	 80.418809 
728.000000	 80.447849 
727.000000	 80.478053 
726.000000	 80.504903 
725.000000	 80.529827 
724.000000	 80.553892 
723.000000	 80.572969 
722.000000	 80.583332 
721.000000	 80.588157 
720.000000	 80.594760 
719.000000	 80.608116 
718.000000	 80.629424 
717.000000	 80.656448 
716.000000	 80.681626 
715.000000	 80.694564 
714.000000	 80.691136 
713.000000	 80.677638 
712.000000	 80.663497 
711.000000	 80.653453 
710.000000	 80.648378 
709.000000	 80.647960 
708.000000	 80.650396 
707.000000	 80.653577 
706.000000	 80.658339 
705.000000	 80.665924 
704.000000	 80.670425 
703.000000	 80.659438 
702.000000	 80.624948 
701.000000	 80.569756 
700.000000	 80.502177 
699.000000	 80.429024 
698.000000	 80.355270 
697.000000	 80.285919 
696.000000	 80.227089 
695.000000	 80.189232 
694.000000	 80.186981 
693.000000	 80.227835 
692.000000	 80.299763 
691.000000	 80.377155 
690.000000	 80.443004 
689.000000	 80.497831 
688.000000	 80.545694 
687.000000	 80.584128 
686.000000	 80.611574 
685.000000	 80.633049 
684.000000	 80.652894 
683.000000	 80.671842 
682.000000	 80.695649 
681.000000	 80.735452 
680.000000	 80.791920 
679.000000	 80.847615 
678.000000	 80.882774 
677.000000	 80.895457 
676.000000	 80.902752 
675.000000	 80.923640 
674.000000	 80.962494 
673.000000	 81.006771 
672.000000	 81.035832 
671.000000	 81.039483 
670.000000	 81.027444 
669.000000	 81.031667 
668.000000	 81.084357 
667.000000	 81.159908 
666.000000	 81.217762 
665.000000	 81.269815 
664.000000	 81.334518 
663.000000	 81.407236 
662.000000	 81.473516 
661.000000	 81.526865 
660.000000	 81.571575 
659.000000	 81.612113 
658.000000	 81.654927 
657.000000	 81.706614 
656.000000	 81.762082 
655.000000	 81.804834 
654.000000	 81.828051 
653.000000	 81.840352 
652.000000	 81.843567 
651.000000	 81.827244 
650.000000	 81.796257 

