PE IR                   SPECTRUM    ASCII       PEDS        1.60        
  -1
~SP.SP
22/12/06
16:21:29.00
23/01/09
14:53:48.00
Administrator

650.000000
4









FRONTIER FT-IR,CPU32 MAIN 00.09.9951 07-SEPTEMBER-2011 11:49:41
MIR TGS
MIR
OPTKBR
90694
0.200000

4.000000
STRONG
RATIO
SPECTRUM
MAGNITUDE
MIRACLE ATR
DOUBLE

COMBINED


0


#HDR
-1
-1
#GR
CM-1
%T
0.00002384185791015625
0.0
4000.000000
-1.000000
3351
8
94.038297
83.030213
#DATA
4000.000000	93.997217 
3999.000000	93.994876 
3998.000000	93.988714 
3997.000000	93.979684 
3996.000000	93.969965 
3995.000000	93.961504 
3994.000000	93.955186 
3993.000000	93.950876 
3992.000000	93.947996 
3991.000000	93.946306 
3990.000000	93.946135 
3989.000000	93.947810 
3988.000000	93.950913 
3987.000000	93.954145 
3986.000000	93.956022 
3985.000000	93.955645 
3984.000000	93.952857 
3983.000000	93.947991 
3982.000000	93.941649 
3981.000000	93.934657 
3980.000000	93.928020 
3979.000000	93.922589 
3978.000000	93.918505 
3977.000000	93.914966 
3976.000000	93.910922 
3975.000000	93.906271 
3974.000000	93.902256 
3973.000000	93.900286 
3972.000000	93.900266 
3971.000000	93.900429 
3970.000000	93.899026 
3969.000000	93.895971 
3968.000000	93.892488 
3967.000000	93.889321 
3966.000000	93.885650 
3965.000000	93.879913 
3964.000000	93.871482 
3963.000000	93.861550 
3962.000000	93.852448 
3961.000000	93.846133 
3960.000000	93.843418 
3959.000000	93.844260 
3958.000000	93.848125 
3957.000000	93.853762 
3956.000000	93.858924 
3955.000000	93.861126 
3954.000000	93.858952 
3953.000000	93.852367 
3952.000000	93.841998 
3951.000000	93.828796 
3950.000000	93.814426 
3949.000000	93.801201 
3948.000000	93.790843 
3947.000000	93.783624 
3946.000000	93.779029 
3945.000000	93.776796 
3944.000000	93.777121 
3943.000000	93.779785 
3942.000000	93.783324 
3941.000000	93.785523 
3940.000000	93.784979 
3939.000000	93.781886 
3938.000000	93.777192 
3937.000000	93.771363 
3936.000000	93.764319 
3935.000000	93.756606 
3934.000000	93.749782 
3933.000000	93.745119 
3932.000000	93.742270 
3931.000000	93.740364 
3930.000000	93.740014 
3929.000000	93.742759 
3928.000000	93.748216 
3927.000000	93.752674 
3926.000000	93.751764 
3925.000000	93.744431 
3924.000000	93.733506 
3923.000000	93.722505 
3922.000000	93.712989 
3921.000000	93.705338 
3920.000000	93.699930 
3919.000000	93.696762 
3918.000000	93.695634 
3917.000000	93.697322 
3916.000000	93.703515 
3915.000000	93.714910 
3914.000000	93.729823 
3913.000000	93.744932 
3912.000000	93.756450 
3911.000000	93.760797 
3910.000000	93.756123 
3909.000000	93.744569 
3908.000000	93.731417 
3907.000000	93.720892 
3906.000000	93.711711 
3905.000000	93.698330 
3904.000000	93.676756 
3903.000000	93.649538 
3902.000000	93.623530 
3901.000000	93.604680 
3900.000000	93.596366 
3899.000000	93.599582 
3898.000000	93.612393 
3897.000000	93.629970 
3896.000000	93.647507 
3895.000000	93.664153 
3894.000000	93.681073 
3893.000000	93.696294 
3892.000000	93.704802 
3891.000000	93.704649 
3890.000000	93.699377 
3889.000000	93.692905 
3888.000000	93.685181 
3887.000000	93.675353 
3886.000000	93.664463 
3885.000000	93.655919 
3884.000000	93.652155 
3883.000000	93.650846 
3882.000000	93.648685 
3881.000000	93.646381 
3880.000000	93.646621 
3879.000000	93.651515 
3878.000000	93.660434 
3877.000000	93.669516 
3876.000000	93.674745 
3875.000000	93.674694 
3874.000000	93.671256 
3873.000000	93.668198 
3872.000000	93.667122 
3871.000000	93.666920 
3870.000000	93.667325 
3869.000000	93.670078 
3868.000000	93.674998 
3867.000000	93.677974 
3866.000000	93.677256 
3865.000000	93.676804 
3864.000000	93.679973 
3863.000000	93.685210 
3862.000000	93.688661 
3861.000000	93.689143 
3860.000000	93.689449 
3859.000000	93.693117 
3858.000000	93.702287 
3857.000000	93.717832 
3856.000000	93.736990 
3855.000000	93.750845 
3854.000000	93.749905 
3853.000000	93.737685 
3852.000000	93.728421 
3851.000000	93.722912 
3850.000000	93.712910 
3849.000000	93.700884 
3848.000000	93.693636 
3847.000000	93.691272 
3846.000000	93.690706 
3845.000000	93.690841 
3844.000000	93.692501 
3843.000000	93.696398 
3842.000000	93.702962 
3841.000000	93.712566 
3840.000000	93.723939 
3839.000000	93.733150 
3838.000000	93.736430 
3837.000000	93.734698 
3836.000000	93.732400 
3835.000000	93.732393 
3834.000000	93.733799 
3833.000000	93.734008 
3832.000000	93.730793 
3831.000000	93.724386 
3830.000000	93.717421 
3829.000000	93.712345 
3828.000000	93.710072 
3827.000000	93.710834 
3826.000000	93.715049 
3825.000000	93.723274 
3824.000000	93.734728 
3823.000000	93.746611 
3822.000000	93.755298 
3821.000000	93.759967 
3820.000000	93.763802 
3819.000000	93.766106 
3818.000000	93.760579 
3817.000000	93.747081 
3816.000000	93.732362 
3815.000000	93.721802 
3814.000000	93.713814 
3813.000000	93.700637 
3812.000000	93.681626 
3811.000000	93.667888 
3810.000000	93.667476 
3809.000000	93.676592 
3808.000000	93.685240 
3807.000000	93.687995 
3806.000000	93.689596 
3805.000000	93.696278 
3804.000000	93.706448 
3803.000000	93.713958 
3802.000000	93.713136 
3801.000000	93.704026 
3800.000000	93.694733 
3799.000000	93.688342 
3798.000000	93.679929 
3797.000000	93.669851 
3796.000000	93.661934 
3795.000000	93.656494 
3794.000000	93.651212 
3793.000000	93.643570 
3792.000000	93.633564 
3791.000000	93.622906 
3790.000000	93.612465 
3789.000000	93.601897 
3788.000000	93.591205 
3787.000000	93.581136 
3786.000000	93.573026 
3785.000000	93.568649 
3784.000000	93.569520 
3783.000000	93.575039 
3782.000000	93.582146 
3781.000000	93.587306 
3780.000000	93.589085 
3779.000000	93.588471 
3778.000000	93.586718 
3777.000000	93.583098 
3776.000000	93.576602 
3775.000000	93.569878 
3774.000000	93.568146 
3773.000000	93.574049 
3772.000000	93.584250 
3771.000000	93.591733 
3770.000000	93.591423 
3769.000000	93.583390 
3768.000000	93.569932 
3767.000000	93.553240 
3766.000000	93.537854 
3765.000000	93.530586 
3764.000000	93.534569 
3763.000000	93.545449 
3762.000000	93.554393 
3761.000000	93.555136 
3760.000000	93.547900 
3759.000000	93.538127 
3758.000000	93.532212 
3757.000000	93.533022 
3756.000000	93.539874 
3755.000000	93.551062 
3754.000000	93.565244 
3753.000000	93.582502 
3752.000000	93.600532 
3751.000000	93.611891 
3750.000000	93.610383 
3749.000000	93.597824 
3748.000000	93.580728 
3747.000000	93.563271 
3746.000000	93.545307 
3745.000000	93.524494 
3744.000000	93.503859 
3743.000000	93.491464 
3742.000000	93.480780 
3741.000000	93.458742 
3740.000000	93.432852 
3739.000000	93.415144 
3738.000000	93.400560 
3737.000000	93.380461 
3736.000000	93.360863 
3735.000000	93.357817 
3734.000000	93.376138 
3733.000000	93.404500 
3732.000000	93.429518 
3731.000000	93.444961 
3730.000000	93.447532 
3729.000000	93.434044 
3728.000000	93.406584 
3727.000000	93.374752 
3726.000000	93.350692 
3725.000000	93.341867 
3724.000000	93.346246 
3723.000000	93.355263 
3722.000000	93.362375 
3721.000000	93.366879 
3720.000000	93.371462 
3719.000000	93.377814 
3718.000000	93.385187 
3717.000000	93.392385 
3716.000000	93.399835 
3715.000000	93.410038 
3714.000000	93.425931 
3713.000000	93.447721 
3712.000000	93.470078 
3711.000000	93.485445 
3710.000000	93.489917 
3709.000000	93.483367 
3708.000000	93.468779 
3707.000000	93.452000 
3706.000000	93.438690 
3705.000000	93.432059 
3704.000000	93.431995 
3703.000000	93.436684 
3702.000000	93.444820 
3701.000000	93.456632 
3700.000000	93.471501 
3699.000000	93.486329 
3698.000000	93.498443 
3697.000000	93.509011 
3696.000000	93.521455 
3695.000000	93.537335 
3694.000000	93.554964 
3693.000000	93.572153 
3692.000000	93.587971 
3691.000000	93.599147 
3690.000000	93.600411 
3689.000000	93.591456 
3688.000000	93.580635 
3687.000000	93.574764 
3686.000000	93.569811 
3685.000000	93.560028 
3684.000000	93.548375 
3683.000000	93.542206 
3682.000000	93.544465 
3681.000000	93.554349 
3680.000000	93.572118 
3679.000000	93.599953 
3678.000000	93.635297 
3677.000000	93.665409 
3676.000000	93.674957 
3675.000000	93.664745 
3674.000000	93.649241 
3673.000000	93.629132 
3672.000000	93.597672 
3671.000000	93.560103 
3670.000000	93.525637 
3669.000000	93.501527 
3668.000000	93.488804 
3667.000000	93.478920 
3666.000000	93.467798 
3665.000000	93.459054 
3664.000000	93.453218 
3663.000000	93.446940 
3662.000000	93.437950 
3661.000000	93.426470 
3660.000000	93.413648 
3659.000000	93.399993 
3658.000000	93.384802 
3657.000000	93.367593 
3656.000000	93.349465 
3655.000000	93.331420 
3654.000000	93.310885 
3653.000000	93.284869 
3652.000000	93.256422 
3651.000000	93.228954 
3650.000000	93.202522 
3649.000000	93.180575 
3648.000000	93.166052 
3647.000000	93.153367 
3646.000000	93.137572 
3645.000000	93.121301 
3644.000000	93.109829 
3643.000000	93.105880 
3642.000000	93.106811 
3641.000000	93.105985 
3640.000000	93.098040 
3639.000000	93.083299 
3638.000000	93.066875 
3637.000000	93.053653 
3636.000000	93.043461 
3635.000000	93.032503 
3634.000000	93.018734 
3633.000000	93.004282 
3632.000000	92.991835 
3631.000000	92.980481 
3630.000000	92.965543 
3629.000000	92.944903 
3628.000000	92.927042 
3627.000000	92.917419 
3626.000000	92.906797 
3625.000000	92.889189 
3624.000000	92.869204 
3623.000000	92.850029 
3622.000000	92.831902 
3621.000000	92.817099 
3620.000000	92.809066 
3619.000000	92.808287 
3618.000000	92.810838 
3617.000000	92.811458 
3616.000000	92.808521 
3615.000000	92.805712 
3614.000000	92.807442 
3613.000000	92.813612 
3612.000000	92.818854 
3611.000000	92.817480 
3610.000000	92.810940 
3609.000000	92.808402 
3608.000000	92.818331 
3607.000000	92.839833 
3606.000000	92.863855 
3605.000000	92.882747 
3604.000000	92.895611 
3603.000000	92.905263 
3602.000000	92.913079 
3601.000000	92.917958 
3600.000000	92.918398 
3599.000000	92.914528 
3598.000000	92.908131 
3597.000000	92.901900 
3596.000000	92.898798 
3595.000000	92.900572 
3594.000000	92.906388 
3593.000000	92.912507 
3592.000000	92.914349 
3591.000000	92.909142 
3590.000000	92.897567 
3589.000000	92.882933 
3588.000000	92.870777 
3587.000000	92.866927 
3586.000000	92.873613 
3585.000000	92.888025 
3584.000000	92.904673 
3583.000000	92.918412 
3582.000000	92.927020 
3581.000000	92.932426 
3580.000000	92.938442 
3579.000000	92.947343 
3578.000000	92.958916 
3577.000000	92.971863 
3576.000000	92.985112 
3575.000000	92.997384 
3574.000000	93.006406 
3573.000000	93.008763 
3572.000000	93.000999 
3571.000000	92.980986 
3570.000000	92.949499 
3569.000000	92.911707 
3568.000000	92.877649 
3567.000000	92.858271 
3566.000000	92.858380 
3565.000000	92.874731 
3564.000000	92.900493 
3563.000000	92.928948 
3562.000000	92.954534 
3561.000000	92.974134 
3560.000000	92.987691 
3559.000000	92.996744 
3558.000000	93.002550 
3557.000000	93.005543 
3556.000000	93.006413 
3555.000000	93.007103 
3554.000000	93.009936 
3553.000000	93.015260 
3552.000000	93.020156 
3551.000000	93.020101 
3550.000000	93.012013 
3549.000000	92.996011 
3548.000000	92.975505 
3547.000000	92.956448 
3546.000000	92.945337 
3545.000000	92.946228 
3544.000000	92.958871 
3543.000000	92.979275 
3542.000000	93.001944 
3541.000000	93.022147 
3540.000000	93.036989 
3539.000000	93.045520 
3538.000000	93.048819 
3537.000000	93.049918 
3536.000000	93.052430 
3535.000000	93.058208 
3534.000000	93.066224 
3533.000000	93.073757 
3532.000000	93.078403 
3531.000000	93.079141 
3530.000000	93.076205 
3529.000000	93.070450 
3528.000000	93.062757 
3527.000000	93.053776 
3526.000000	93.044534 
3525.000000	93.037528 
3524.000000	93.036496 
3523.000000	93.043691 
3522.000000	93.057595 
3521.000000	93.074174 
3520.000000	93.090278 
3519.000000	93.105066 
3518.000000	93.118155 
3517.000000	93.127709 
3516.000000	93.131514 
3515.000000	93.129702 
3514.000000	93.125348 
3513.000000	93.122021 
3512.000000	93.121323 
3511.000000	93.123191 
3510.000000	93.127430 
3509.000000	93.133826 
3508.000000	93.141077 
3507.000000	93.146758 
3506.000000	93.148938 
3505.000000	93.147713 
3504.000000	93.145303 
3503.000000	93.144675 
3502.000000	93.147761 
3501.000000	93.154630 
3500.000000	93.163794 
3499.000000	93.172938 
3498.000000	93.179917 
3497.000000	93.183890 
3496.000000	93.185730 
3495.000000	93.187249 
3494.000000	93.189943 
3493.000000	93.194284 
3492.000000	93.199801 
3491.000000	93.205463 
3490.000000	93.210148 
3489.000000	93.213231 
3488.000000	93.215041 
3487.000000	93.216711 
3486.000000	93.219283 
3485.000000	93.222827 
3484.000000	93.226504 
3483.000000	93.229409 
3482.000000	93.231378 
3481.000000	93.233026 
3480.000000	93.235170 
3479.000000	93.238181 
3478.000000	93.241769 
3477.000000	93.245174 
3476.000000	93.247847 
3475.000000	93.249966 
3474.000000	93.252160 
3473.000000	93.254791 
3472.000000	93.257671 
3471.000000	93.260397 
3470.000000	93.262767 
3469.000000	93.264824 
3468.000000	93.266666 
3467.000000	93.268398 
3466.000000	93.270233 
3465.000000	93.272375 
3464.000000	93.274788 
3463.000000	93.277159 
3462.000000	93.279201 
3461.000000	93.280911 
3460.000000	93.282481 
3459.000000	93.284059 
3458.000000	93.285663 
3457.000000	93.287296 
3456.000000	93.289088 
3455.000000	93.291238 
3454.000000	93.293794 
3453.000000	93.296586 
3452.000000	93.299370 
3451.000000	93.301924 
3450.000000	93.303996 
3449.000000	93.305342 
3448.000000	93.305974 
3447.000000	93.306353 
3446.000000	93.307143 
3445.000000	93.308649 
3444.000000	93.310686 
3443.000000	93.312986 
3442.000000	93.315562 
3441.000000	93.318440 
3440.000000	93.321123 
3439.000000	93.322764 
3438.000000	93.323000 
3437.000000	93.322437 
3436.000000	93.322274 
3435.000000	93.323189 
3434.000000	93.324819 
3433.000000	93.326163 
3432.000000	93.326551 
3431.000000	93.326268 
3430.000000	93.326210 
3429.000000	93.326981 
3428.000000	93.328530 
3427.000000	93.330559 
3426.000000	93.332866 
3425.000000	93.335057 
3424.000000	93.336361 
3423.000000	93.336289 
3422.000000	93.335442 
3421.000000	93.335167 
3420.000000	93.336285 
3419.000000	93.338587 
3418.000000	93.341432 
3417.000000	93.344173 
3416.000000	93.345995 
3415.000000	93.346365 
3414.000000	93.346110 
3413.000000	93.347185 
3412.000000	93.350368 
3411.000000	93.353720 
3410.000000	93.354435 
3409.000000	93.351945 
3408.000000	93.348425 
3407.000000	93.346376 
3406.000000	93.346326 
3405.000000	93.347006 
3404.000000	93.346728 
3403.000000	93.344275 
3402.000000	93.339389 
3401.000000	93.333144 
3400.000000	93.327549 
3399.000000	93.324231 
3398.000000	93.323383 
3397.000000	93.324074 
3396.000000	93.325105 
3395.000000	93.325493 
3394.000000	93.324769 
3393.000000	93.323345 
3392.000000	93.322475 
3391.000000	93.323306 
3390.000000	93.325840 
3389.000000	93.328996 
3388.000000	93.331866 
3387.000000	93.334631 
3386.000000	93.337879 
3385.000000	93.341264 
3384.000000	93.343413 
3383.000000	93.343327 
3382.000000	93.341410 
3381.000000	93.338877 
3380.000000	93.336481 
3379.000000	93.334238 
3378.000000	93.332154 
3377.000000	93.330557 
3376.000000	93.329546 
3375.000000	93.328598 
3374.000000	93.327046 
3373.000000	93.324628 
3372.000000	93.321362 
3371.000000	93.317310 
3370.000000	93.312867 
3369.000000	93.308995 
3368.000000	93.306647 
3367.000000	93.305869 
3366.000000	93.305705 
3365.000000	93.305112 
3364.000000	93.303876 
3363.000000	93.302443 
3362.000000	93.301011 
3361.000000	93.299095 
3360.000000	93.296140 
3359.000000	93.292444 
3358.000000	93.289192 
3357.000000	93.287344 
3356.000000	93.286583 
3355.000000	93.285422 
3354.000000	93.282506 
3353.000000	93.277721 
3352.000000	93.272237 
3351.000000	93.267637 
3350.000000	93.264750 
3349.000000	93.263390 
3348.000000	93.262703 
3347.000000	93.261761 
3346.000000	93.260071 
3345.000000	93.257684 
3344.000000	93.254976 
3343.000000	93.252216 
3342.000000	93.249285 
3341.000000	93.245896 
3340.000000	93.241951 
3339.000000	93.237590 
3338.000000	93.232991 
3337.000000	93.228384 
3336.000000	93.224216 
3335.000000	93.220996 
3334.000000	93.218777 
3333.000000	93.216840 
3332.000000	93.214148 
3331.000000	93.210275 
3330.000000	93.205696 
3329.000000	93.201225 
3328.000000	93.197167 
3327.000000	93.193218 
3326.000000	93.189072 
3325.000000	93.184851 
3324.000000	93.180916 
3323.000000	93.177368 
3322.000000	93.173832 
3321.000000	93.169724 
3320.000000	93.164722 
3319.000000	93.158986 
3318.000000	93.153017 
3317.000000	93.147360 
3316.000000	93.142294 
3315.000000	93.137679 
3314.000000	93.133038 
3313.000000	93.127921 
3312.000000	93.122318 
3311.000000	93.116666 
3310.000000	93.111407 
3309.000000	93.106537 
3308.000000	93.101678 
3307.000000	93.096461 
3306.000000	93.090818 
3305.000000	93.084954 
3304.000000	93.079202 
3303.000000	93.073842 
3302.000000	93.068942 
3301.000000	93.064294 
3300.000000	93.059508 
3299.000000	93.054302 
3298.000000	93.048670 
3297.000000	93.042808 
3296.000000	93.036913 
3295.000000	93.031087 
3294.000000	93.025374 
3293.000000	93.019817 
3292.000000	93.014471 
3291.000000	93.009382 
3290.000000	93.004483 
3289.000000	92.999470 
3288.000000	92.993919 
3287.000000	92.987684 
3286.000000	92.981162 
3285.000000	92.975073 
3284.000000	92.969808 
3283.000000	92.965177 
3282.000000	92.960758 
3281.000000	92.956343 
3280.000000	92.951814 
3279.000000	92.946773 
3278.000000	92.940656 
3277.000000	92.933294 
3276.000000	92.925309 
3275.000000	92.917762 
3274.000000	92.911402 
3273.000000	92.906350 
3272.000000	92.902205 
3271.000000	92.898316 
3270.000000	92.894155 
3269.000000	92.889715 
3268.000000	92.885538 
3267.000000	92.882041 
3266.000000	92.878772 
3265.000000	92.874741 
3264.000000	92.869656 
3263.000000	92.864483 
3262.000000	92.860344 
3261.000000	92.856944 
3260.000000	92.852697 
3259.000000	92.846610 
3258.000000	92.839538 
3257.000000	92.833257 
3256.000000	92.828406 
3255.000000	92.823904 
3254.000000	92.818444 
3253.000000	92.812099 
3252.000000	92.806135 
3251.000000	92.801410 
3250.000000	92.797444 
3249.000000	92.793185 
3248.000000	92.788296 
3247.000000	92.783307 
3246.000000	92.778682 
3245.000000	92.774205 
3244.000000	92.769357 
3243.000000	92.763790 
3242.000000	92.757213 
3241.000000	92.749374 
3240.000000	92.740606 
3239.000000	92.732202 
3238.000000	92.725614 
3237.000000	92.721164 
3236.000000	92.717788 
3235.000000	92.714001 
3234.000000	92.709120 
3233.000000	92.703386 
3232.000000	92.697428 
3231.000000	92.691897 
3230.000000	92.687269 
3229.000000	92.683568 
3228.000000	92.680259 
3227.000000	92.676590 
3226.000000	92.672072 
3225.000000	92.666631 
3224.000000	92.660495 
3223.000000	92.654172 
3222.000000	92.648398 
3221.000000	92.643641 
3220.000000	92.639472 
3219.000000	92.634692 
3218.000000	92.628475 
3217.000000	92.621274 
3216.000000	92.614463 
3215.000000	92.608908 
3214.000000	92.604108 
3213.000000	92.598874 
3212.000000	92.592719 
3211.000000	92.586237 
3210.000000	92.580204 
3209.000000	92.574718 
3208.000000	92.569429 
3207.000000	92.564197 
3206.000000	92.559062 
3205.000000	92.553743 
3204.000000	92.547710 
3203.000000	92.540842 
3202.000000	92.533721 
3201.000000	92.527129 
3200.000000	92.521465 
3199.000000	92.516631 
3198.000000	92.512245 
3197.000000	92.507893 
3196.000000	92.503381 
3195.000000	92.498914 
3194.000000	92.494910 
3193.000000	92.491424 
3192.000000	92.487780 
3191.000000	92.483019 
3190.000000	92.476789 
3189.000000	92.469678 
3188.000000	92.462796 
3187.000000	92.456893 
3186.000000	92.451863 
3185.000000	92.446950 
3184.000000	92.441375 
3183.000000	92.434929 
3182.000000	92.428076 
3181.000000	92.421601 
3180.000000	92.416013 
3179.000000	92.411233 
3178.000000	92.406769 
3177.000000	92.402224 
3176.000000	92.397621 
3175.000000	92.393100 
3174.000000	92.388474 
3173.000000	92.383328 
3172.000000	92.377566 
3171.000000	92.371586 
3170.000000	92.365777 
3169.000000	92.360103 
3168.000000	92.354421 
3167.000000	92.348947 
3166.000000	92.344048 
3165.000000	92.339608 
3164.000000	92.334942 
3163.000000	92.329527 
3162.000000	92.323581 
3161.000000	92.317865 
3160.000000	92.312883 
3159.000000	92.308436 
3158.000000	92.303854 
3157.000000	92.298595 
3156.000000	92.292671 
3155.000000	92.286720 
3154.000000	92.281562 
3153.000000	92.277526 
3152.000000	92.274194 
3151.000000	92.270743 
3150.000000	92.266711 
3149.000000	92.262303 
3148.000000	92.257990 
3147.000000	92.253948 
3146.000000	92.249945 
3145.000000	92.245710 
3144.000000	92.241296 
3143.000000	92.236970 
3142.000000	92.232799 
3141.000000	92.228580 
3140.000000	92.224227 
3139.000000	92.220054 
3138.000000	92.216466 
3137.000000	92.213461 
3136.000000	92.210534 
3135.000000	92.207125 
3134.000000	92.203094 
3133.000000	92.198793 
3132.000000	92.194791 
3131.000000	92.191397 
3130.000000	92.188479 
3129.000000	92.185645 
3128.000000	92.182673 
3127.000000	92.179674 
3126.000000	92.176770 
3125.000000	92.173793 
3124.000000	92.170479 
3123.000000	92.166852 
3122.000000	92.163185 
3121.000000	92.159617 
3120.000000	92.156041 
3119.000000	92.152412 
3118.000000	92.148953 
3117.000000	92.145914 
3116.000000	92.143297 
3115.000000	92.140964 
3114.000000	92.138753 
3113.000000	92.136413 
3112.000000	92.133665 
3111.000000	92.130459 
3110.000000	92.127172 
3109.000000	92.124377 
3108.000000	92.122341 
3107.000000	92.120796 
3106.000000	92.119144 
3105.000000	92.116928 
3104.000000	92.114048 
3103.000000	92.110651 
3102.000000	92.106986 
3101.000000	92.103417 
3100.000000	92.100402 
3099.000000	92.098244 
3098.000000	92.096770 
3097.000000	92.095371 
3096.000000	92.093502 
3095.000000	92.090986 
3094.000000	92.087702 
3093.000000	92.083298 
3092.000000	92.077747 
3091.000000	92.072186 
3090.000000	92.068375 
3089.000000	92.067084 
3088.000000	92.067234 
3087.000000	92.066941 
3086.000000	92.065295 
3085.000000	92.062574 
3084.000000	92.059358 
3083.000000	92.056054 
3082.000000	92.052820 
3081.000000	92.049501 
3080.000000	92.046207 
3079.000000	92.044226 
3078.000000	92.045158 
3077.000000	92.048355 
3076.000000	92.050335 
3075.000000	92.047906 
3074.000000	92.041229 
3073.000000	92.033392 
3072.000000	92.028117 
3071.000000	92.028230 
3070.000000	92.034331 
3069.000000	92.043210 
3068.000000	92.048925 
3067.000000	92.047576 
3066.000000	92.040823 
3065.000000	92.033941 
3064.000000	92.031106 
3063.000000	92.033047 
3062.000000	92.037480 
3061.000000	92.040329 
3060.000000	92.038360 
3059.000000	92.032714 
3058.000000	92.028497 
3057.000000	92.028699 
3056.000000	92.029907 
3055.000000	92.026954 
3054.000000	92.020815 
3053.000000	92.018021 
3052.000000	92.022031 
3051.000000	92.028835 
3050.000000	92.032439 
3049.000000	92.031997 
3048.000000	92.031303 
3047.000000	92.033096 
3046.000000	92.036548 
3045.000000	92.039593 
3044.000000	92.041342 
3043.000000	92.042192 
3042.000000	92.043519 
3041.000000	92.047760 
3040.000000	92.057099 
3039.000000	92.071006 
3038.000000	92.085835 
3037.000000	92.098238 
3036.000000	92.109037 
3035.000000	92.122376 
3034.000000	92.140685 
3033.000000	92.162154 
3032.000000	92.183964 
3031.000000	92.206275 
3030.000000	92.231259 
3029.000000	92.258701 
3028.000000	92.284625 
3027.000000	92.305176 
3026.000000	92.320616 
3025.000000	92.334430 
3024.000000	92.349639 
3023.000000	92.367331 
3022.000000	92.387786 
3021.000000	92.410989 
3020.000000	92.435913 
3019.000000	92.460963 
3018.000000	92.485812 
3017.000000	92.511745 
3016.000000	92.539460 
3015.000000	92.567580 
3014.000000	92.594513 
3013.000000	92.621349 
3012.000000	92.651691 
3011.000000	92.688230 
3010.000000	92.730061 
3009.000000	92.773674 
3008.000000	92.816107 
3007.000000	92.856696 
3006.000000	92.896190 
3005.000000	92.935147 
3004.000000	92.973418 
3003.000000	93.010383 
3002.000000	93.045274 
3001.000000	93.078020 
3000.000000	93.110528 
2999.000000	93.146263 
2998.000000	93.186768 
2997.000000	93.228302 
2996.000000	93.263889 
2995.000000	93.291205 
2994.000000	93.318957 
2993.000000	93.363331 
2992.000000	93.435072 
2991.000000	93.528009 
2990.000000	93.620515 
2989.000000	93.690631 
2988.000000	93.731500 
2987.000000	93.753033 
2986.000000	93.770288 
2985.000000	93.791399 
2984.000000	93.816118 
2983.000000	93.842250 
2982.000000	93.869991 
2981.000000	93.900536 
2980.000000	93.933048 
2979.000000	93.963852 
2978.000000	93.987850 
2977.000000	94.001362 
2976.000000	94.005621 
2975.000000	94.007510 
2974.000000	94.014059 
2973.000000	94.024086 
2972.000000	94.026158 
2971.000000	94.006593 
2970.000000	93.959867 
2969.000000	93.891716 
2968.000000	93.813749 
2967.000000	93.735876 
2966.000000	93.662670 
2965.000000	93.594541 
2964.000000	93.530779 
2963.000000	93.471700 
2962.000000	93.418771 
2961.000000	93.373234 
2960.000000	93.334815 
2959.000000	93.301598 
2958.000000	93.271172 
2957.000000	93.242451 
2956.000000	93.216895 
2955.000000	93.197421 
2954.000000	93.184929 
2953.000000	93.175825 
2952.000000	93.164006 
2951.000000	93.145849 
2950.000000	93.122758 
2949.000000	93.098781 
2948.000000	93.076864 
2947.000000	93.058035 
2946.000000	93.042903 
2945.000000	93.032399 
2944.000000	93.027065 
2943.000000	93.026343 
2942.000000	93.028589 
2941.000000	93.031652 
2940.000000	93.033758 
2939.000000	93.034268 
2938.000000	93.033532 
2937.000000	93.031820 
2936.000000	93.028770 
2935.000000	93.024332 
2934.000000	93.019925 
2933.000000	93.017711 
2932.000000	93.018202 
2931.000000	93.018977 
2930.000000	93.016544 
2929.000000	93.009772 
2928.000000	93.001143 
2927.000000	92.994557 
2926.000000	92.992767 
2925.000000	92.997173 
2924.000000	93.008363 
2923.000000	93.024723 
2922.000000	93.041011 
2921.000000	93.051194 
2920.000000	93.054141 
2919.000000	93.055115 
2918.000000	93.060481 
2917.000000	93.072092 
2916.000000	93.087636 
2915.000000	93.104577 
2914.000000	93.121693 
2913.000000	93.137881 
2912.000000	93.152098 
2911.000000	93.164556 
2910.000000	93.175941 
2909.000000	93.185444 
2908.000000	93.191813 
2907.000000	93.197235 
2906.000000	93.208350 
2905.000000	93.231470 
2904.000000	93.266631 
2903.000000	93.306069 
2902.000000	93.337748 
2901.000000	93.351011 
2900.000000	93.340982 
2899.000000	93.310769 
2898.000000	93.270244 
2897.000000	93.231786 
2896.000000	93.205359 
2895.000000	93.194746 
2894.000000	93.195903 
2893.000000	93.198816 
2892.000000	93.193998 
2891.000000	93.179783 
2890.000000	93.163150 
2889.000000	93.152456 
2888.000000	93.149642 
2887.000000	93.149929 
2886.000000	93.147631 
2885.000000	93.140388 
2884.000000	93.128359 
2883.000000	93.111991 
2882.000000	93.091868 
2881.000000	93.069404 
2880.000000	93.046033 
2879.000000	93.021961 
2878.000000	92.996950 
2877.000000	92.972225 
2876.000000	92.949949 
2875.000000	92.929836 
2874.000000	92.907550 
2873.000000	92.878604 
2872.000000	92.844185 
2871.000000	92.811551 
2870.000000	92.787389 
2869.000000	92.771288 
2868.000000	92.756620 
2867.000000	92.736999 
2866.000000	92.710713 
2865.000000	92.679458 
2864.000000	92.645024 
2863.000000	92.608334 
2862.000000	92.570568 
2861.000000	92.533485 
2860.000000	92.498079 
2859.000000	92.463549 
2858.000000	92.428223 
2857.000000	92.391698 
2856.000000	92.355800 
2855.000000	92.323193 
2854.000000	92.295562 
2853.000000	92.273724 
2852.000000	92.258705 
2851.000000	92.250775 
2850.000000	92.247054 
2849.000000	92.242166 
2848.000000	92.233183 
2847.000000	92.222787 
2846.000000	92.215534 
2845.000000	92.212079 
2844.000000	92.209269 
2843.000000	92.204955 
2842.000000	92.199820 
2841.000000	92.194379 
2840.000000	92.187217 
2839.000000	92.177593 
2838.000000	92.167614 
2837.000000	92.159827 
2836.000000	92.153645 
2835.000000	92.145850 
2834.000000	92.134466 
2833.000000	92.121016 
2832.000000	92.108976 
2831.000000	92.100725 
2830.000000	92.095987 
2829.000000	92.092627 
2828.000000	92.088660 
2827.000000	92.083600 
2826.000000	92.078231 
2825.000000	92.073565 
2824.000000	92.070037 
2823.000000	92.067020 
2822.000000	92.062880 
2821.000000	92.056257 
2820.000000	92.047776 
2819.000000	92.039722 
2818.000000	92.033562 
2817.000000	92.028829 
2816.000000	92.025125 
2815.000000	92.023605 
2814.000000	92.024838 
2813.000000	92.026461 
2812.000000	92.025264 
2811.000000	92.021199 
2810.000000	92.017183 
2809.000000	92.014953 
2808.000000	92.013167 
2807.000000	92.009868 
2806.000000	92.004948 
2805.000000	91.999556 
2804.000000	91.994527 
2803.000000	91.990228 
2802.000000	91.986947 
2801.000000	91.984820 
2800.000000	91.983954 
2799.000000	91.984824 
2798.000000	91.987721 
2797.000000	91.991491 
2796.000000	91.993634 
2795.000000	91.992260 
2794.000000	91.987674 
2793.000000	91.981973 
2792.000000	91.977504 
2791.000000	91.975446 
2790.000000	91.975360 
2789.000000	91.975863 
2788.000000	91.975945 
2787.000000	91.975784 
2786.000000	91.976057 
2785.000000	91.976730 
2784.000000	91.976920 
2783.000000	91.975852 
2782.000000	91.973566 
2781.000000	91.970784 
2780.000000	91.968409 
2779.000000	91.966997 
2778.000000	91.966416 
2777.000000	91.966003 
2776.000000	91.965203 
2775.000000	91.964047 
2774.000000	91.962916 
2773.000000	91.962043 
2772.000000	91.961357 
2771.000000	91.960662 
2770.000000	91.959805 
2769.000000	91.958747 
2768.000000	91.957608 
2767.000000	91.956604 
2766.000000	91.955854 
2765.000000	91.955277 
2764.000000	91.954714 
2763.000000	91.954079 
2762.000000	91.953401 
2761.000000	91.952721 
2760.000000	91.952049 
2759.000000	91.951376 
2758.000000	91.950694 
2757.000000	91.950004 
2756.000000	91.949317 
2755.000000	91.948648 
2754.000000	91.947999 
2753.000000	91.947338 
2752.000000	91.946627 
2751.000000	91.945887 
2750.000000	91.945222 
2749.000000	91.944724 
2748.000000	91.944387 
2747.000000	91.944058 
2746.000000	91.943609 
2745.000000	91.943050 
2744.000000	91.942450 
2743.000000	91.941740 
2742.000000	91.940798 
2741.000000	91.939649 
2740.000000	91.938481 
2739.000000	91.937471 
2738.000000	91.936656 
2737.000000	91.935989 
2736.000000	91.935471 
2735.000000	91.935190 
2734.000000	91.935164 
2733.000000	91.935191 
2732.000000	91.935007 
2731.000000	91.934599 
2730.000000	91.934197 
2729.000000	91.933919 
2728.000000	91.933619 
2727.000000	91.933207 
2726.000000	91.932896 
2725.000000	91.932882 
2724.000000	91.932998 
2723.000000	91.932961 
2722.000000	91.932665 
2721.000000	91.931906 
2720.000000	91.930186 
2719.000000	91.927375 
2718.000000	91.924337 
2717.000000	91.922356 
2716.000000	91.922040 
2715.000000	91.923118 
2714.000000	91.924948 
2713.000000	91.926777 
2712.000000	91.927790 
2711.000000	91.927513 
2710.000000	91.926288 
2709.000000	91.924995 
2708.000000	91.924260 
2707.000000	91.924248 
2706.000000	91.924886 
2705.000000	91.925767 
2704.000000	91.926039 
2703.000000	91.925018 
2702.000000	91.922870 
2701.000000	91.920380 
2700.000000	91.918185 
2699.000000	91.916519 
2698.000000	91.915453 
2697.000000	91.914981 
2696.000000	91.914938 
2695.000000	91.915086 
2694.000000	91.915108 
2693.000000	91.914331 
2692.000000	91.911912 
2691.000000	91.907838 
2690.000000	91.903551 
2689.000000	91.900847 
2688.000000	91.900196 
2687.000000	91.900745 
2686.000000	91.901781 
2685.000000	91.903410 
2684.000000	91.905552 
2683.000000	91.907241 
2682.000000	91.907671 
2681.000000	91.907448 
2680.000000	91.907989 
2679.000000	91.909689 
2678.000000	91.911311 
2677.000000	91.911435 
2676.000000	91.910028 
2675.000000	91.908186 
2674.000000	91.906806 
2673.000000	91.906107 
2672.000000	91.906328 
2671.000000	91.907912 
2670.000000	91.910604 
2669.000000	91.912983 
2668.000000	91.913714 
2667.000000	91.912928 
2666.000000	91.911877 
2665.000000	91.911540 
2664.000000	91.911983 
2663.000000	91.912992 
2662.000000	91.914471 
2661.000000	91.916077 
2660.000000	91.917186 
2659.000000	91.917637 
2658.000000	91.918011 
2657.000000	91.918787 
2656.000000	91.919528 
2655.000000	91.919456 
2654.000000	91.918550 
2653.000000	91.917606 
2652.000000	91.917311 
2651.000000	91.917616 
2650.000000	91.918057 
2649.000000	91.918359 
2648.000000	91.918642 
2647.000000	91.919140 
2646.000000	91.919911 
2645.000000	91.920811 
2644.000000	91.921659 
2643.000000	91.922334 
2642.000000	91.922760 
2641.000000	91.922904 
2640.000000	91.922869 
2639.000000	91.922932 
2638.000000	91.923301 
2637.000000	91.923808 
2636.000000	91.924023 
2635.000000	91.923762 
2634.000000	91.923329 
2633.000000	91.923153 
2632.000000	91.923335 
2631.000000	91.923780 
2630.000000	91.924497 
2629.000000	91.925463 
2628.000000	91.926319 
2627.000000	91.926587 
2626.000000	91.926269 
2625.000000	91.925944 
2624.000000	91.926127 
2623.000000	91.926728 
2622.000000	91.927269 
2621.000000	91.927476 
2620.000000	91.927646 
2619.000000	91.928441 
2618.000000	91.930267 
2617.000000	91.932640 
2616.000000	91.934317 
2615.000000	91.934419 
2614.000000	91.933235 
2613.000000	91.931873 
2612.000000	91.931001 
2611.000000	91.930371 
2610.000000	91.929703 
2609.000000	91.929475 
2608.000000	91.930330 
2607.000000	91.931923 
2606.000000	91.932907 
2605.000000	91.932303 
2604.000000	91.930491 
2603.000000	91.928672 
2602.000000	91.927566 
2601.000000	91.927159 
2600.000000	91.927599 
2599.000000	91.929494 
2598.000000	91.932883 
2597.000000	91.936490 
2596.000000	91.938811 
2595.000000	91.939835 
2594.000000	91.940937 
2593.000000	91.943070 
2592.000000	91.945614 
2591.000000	91.947283 
2590.000000	91.947647 
2589.000000	91.947442 
2588.000000	91.947740 
2587.000000	91.949003 
2586.000000	91.950675 
2585.000000	91.951521 
2584.000000	91.950735 
2583.000000	91.948848 
2582.000000	91.947210 
2581.000000	91.946498 
2580.000000	91.946326 
2579.000000	91.946497 
2578.000000	91.947676 
2577.000000	91.950264 
2576.000000	91.953408 
2575.000000	91.955887 
2574.000000	91.957642 
2573.000000	91.959603 
2572.000000	91.962256 
2571.000000	91.965099 
2570.000000	91.967363 
2569.000000	91.968659 
2568.000000	91.968961 
2567.000000	91.968550 
2566.000000	91.968163 
2565.000000	91.968705 
2564.000000	91.970443 
2563.000000	91.972648 
2562.000000	91.974199 
2561.000000	91.974603 
2560.000000	91.974246 
2559.000000	91.973840 
2558.000000	91.973815 
2557.000000	91.974154 
2556.000000	91.974648 
2555.000000	91.975139 
2554.000000	91.975582 
2553.000000	91.976040 
2552.000000	91.976673 
2551.000000	91.977641 
2550.000000	91.978927 
2549.000000	91.980255 
2548.000000	91.981288 
2547.000000	91.981941 
2546.000000	91.982426 
2545.000000	91.983007 
2544.000000	91.983716 
2543.000000	91.984378 
2542.000000	91.984875 
2541.000000	91.985318 
2540.000000	91.985922 
2539.000000	91.986751 
2538.000000	91.987671 
2537.000000	91.988483 
2536.000000	91.989106 
2535.000000	91.989580 
2534.000000	91.989977 
2533.000000	91.990358 
2532.000000	91.990776 
2531.000000	91.991290 
2530.000000	91.991916 
2529.000000	91.992597 
2528.000000	91.993261 
2527.000000	91.993892 
2526.000000	91.994512 
2525.000000	91.995126 
2524.000000	91.995731 
2523.000000	91.996342 
2522.000000	91.996984 
2521.000000	91.997647 
2520.000000	91.998280 
2519.000000	91.998852 
2518.000000	91.999373 
2517.000000	91.999877 
2516.000000	92.000389 
2515.000000	92.000920 
2514.000000	92.001475 
2513.000000	92.002054 
2512.000000	92.002652 
2511.000000	92.003261 
2510.000000	92.003882 
2509.000000	92.004517 
2508.000000	92.005170 
2507.000000	92.005856 
2506.000000	92.006581 
2505.000000	92.007299 
2504.000000	92.007934 
2503.000000	92.008457 
2502.000000	92.008940 
2501.000000	92.009496 
2500.000000	92.010156 
2499.000000	92.010872 
2498.000000	92.011605 
2497.000000	92.012360 
2496.000000	92.013093 
2495.000000	92.013708 
2494.000000	92.014195 
2493.000000	92.014680 
2492.000000	92.015281 
2491.000000	92.016004 
2490.000000	92.016805 
2489.000000	92.017641 
2488.000000	92.018429 
2487.000000	92.019080 
2486.000000	92.019644 
2485.000000	92.020296 
2484.000000	92.021109 
2483.000000	92.021905 
2482.000000	92.022452 
2481.000000	92.022774 
2480.000000	92.023160 
2479.000000	92.023856 
2478.000000	92.024807 
2477.000000	92.025734 
2476.000000	92.026453 
2475.000000	92.027054 
2474.000000	92.027743 
2473.000000	92.028584 
2472.000000	92.029564 
2471.000000	92.030876 
2470.000000	92.032848 
2469.000000	92.035430 
2468.000000	92.037887 
2467.000000	92.039334 
2466.000000	92.039501 
2465.000000	92.038910 
2464.000000	92.038444 
2463.000000	92.038665 
2462.000000	92.039474 
2461.000000	92.040276 
2460.000000	92.040572 
2459.000000	92.040468 
2458.000000	92.040529 
2457.000000	92.041073 
2456.000000	92.041880 
2455.000000	92.042645 
2454.000000	92.043424 
2453.000000	92.044366 
2452.000000	92.045250 
2451.000000	92.045644 
2450.000000	92.045553 
2449.000000	92.045701 
2448.000000	92.046962 
2447.000000	92.049550 
2446.000000	92.052712 
2445.000000	92.055246 
2444.000000	92.056635 
2443.000000	92.057391 
2442.000000	92.058251 
2441.000000	92.059155 
2440.000000	92.059489 
2439.000000	92.059161 
2438.000000	92.058858 
2437.000000	92.059162 
2436.000000	92.059978 
2435.000000	92.060969 
2434.000000	92.062060 
2433.000000	92.063292 
2432.000000	92.064550 
2431.000000	92.065767 
2430.000000	92.067121 
2429.000000	92.068690 
2428.000000	92.070118 
2427.000000	92.070971 
2426.000000	92.071313 
2425.000000	92.071665 
2424.000000	92.072431 
2423.000000	92.073517 
2422.000000	92.074482 
2421.000000	92.074949 
2420.000000	92.074985 
2419.000000	92.075192 
2418.000000	92.076240 
2417.000000	92.078272 
2416.000000	92.080861 
2415.000000	92.083428 
2414.000000	92.085629 
2413.000000	92.087264 
2412.000000	92.088314 
2411.000000	92.089196 
2410.000000	92.090490 
2409.000000	92.092260 
2408.000000	92.093953 
2407.000000	92.095122 
2406.000000	92.095983 
2405.000000	92.097105 
2404.000000	92.098621 
2403.000000	92.100045 
2402.000000	92.100981 
2401.000000	92.101672 
2400.000000	92.102656 
2399.000000	92.104144 
2398.000000	92.105868 
2397.000000	92.107325 
2396.000000	92.108187 
2395.000000	92.108577 
2394.000000	92.109210 
2393.000000	92.110493 
2392.000000	92.112168 
2391.000000	92.114084 
2390.000000	92.116082 
2389.000000	92.118013 
2388.000000	92.119895 
2387.000000	92.121807 
2386.000000	92.123771 
2385.000000	92.125737 
2384.000000	92.127656 
2383.000000	92.129554 
2382.000000	92.131483 
2381.000000	92.133426 
2380.000000	92.135325 
2379.000000	92.137181 
2378.000000	92.139063 
2377.000000	92.141008 
2376.000000	92.142987 
2375.000000	92.144974 
2374.000000	92.147006 
2373.000000	92.149123 
2372.000000	92.151291 
2371.000000	92.153423 
2370.000000	92.155469 
2369.000000	92.157444 
2368.000000	92.159398 
2367.000000	92.161386 
2366.000000	92.163456 
2365.000000	92.165632 
2364.000000	92.167906 
2363.000000	92.170239 
2362.000000	92.172606 
2361.000000	92.174985 
2360.000000	92.177334 
2359.000000	92.179640 
2358.000000	92.181918 
2357.000000	92.184204 
2356.000000	92.186541 
2355.000000	92.188920 
2354.000000	92.191290 
2353.000000	92.193694 
2352.000000	92.196276 
2351.000000	92.199045 
2350.000000	92.201904 
2349.000000	92.204617 
2348.000000	92.206989 
2347.000000	92.208941 
2346.000000	92.210599 
2345.000000	92.212241 
2344.000000	92.213986 
2343.000000	92.215777 
2342.000000	92.217513 
2341.000000	92.219113 
2340.000000	92.220540 
2339.000000	92.221839 
2338.000000	92.223105 
2337.000000	92.224434 
2336.000000	92.225840 
2335.000000	92.227218 
2334.000000	92.228365 
2333.000000	92.229219 
2332.000000	92.229957 
2331.000000	92.230717 
2330.000000	92.231282 
2329.000000	92.231545 
2328.000000	92.231654 
2327.000000	92.231914 
2326.000000	92.232346 
2325.000000	92.232824 
2324.000000	92.233373 
2323.000000	92.233971 
2322.000000	92.234582 
2321.000000	92.235125 
2320.000000	92.235756 
2319.000000	92.236557 
2318.000000	92.237274 
2317.000000	92.237404 
2316.000000	92.236563 
2315.000000	92.235048 
2314.000000	92.233596 
2313.000000	92.233007 
2312.000000	92.233097 
2311.000000	92.232909 
2310.000000	92.231243 
2309.000000	92.228150 
2308.000000	92.224528 
2307.000000	92.221071 
2306.000000	92.217701 
2305.000000	92.215498 
2304.000000	92.215553 
2303.000000	92.217760 
2302.000000	92.220764 
2301.000000	92.223222 
2300.000000	92.224403 
2299.000000	92.224239 
2298.000000	92.222775 
2297.000000	92.220909 
2296.000000	92.219671 
2295.000000	92.219331 
2294.000000	92.219094 
2293.000000	92.218277 
2292.000000	92.216893 
2291.000000	92.215198 
2290.000000	92.213367 
2289.000000	92.211727 
2288.000000	92.210749 
2287.000000	92.210409 
2286.000000	92.210273 
2285.000000	92.210192 
2284.000000	92.210408 
2283.000000	92.210776 
2282.000000	92.210756 
2281.000000	92.210300 
2280.000000	92.210148 
2279.000000	92.210831 
2278.000000	92.211924 
2277.000000	92.212734 
2276.000000	92.213343 
2275.000000	92.214376 
2274.000000	92.215834 
2273.000000	92.216809 
2272.000000	92.216489 
2271.000000	92.215082 
2270.000000	92.213764 
2269.000000	92.213534 
2268.000000	92.214386 
2267.000000	92.215554 
2266.000000	92.216296 
2265.000000	92.216554 
2264.000000	92.216759 
2263.000000	92.217265 
2262.000000	92.218054 
2261.000000	92.218904 
2260.000000	92.219678 
2259.000000	92.220398 
2258.000000	92.221141 
2257.000000	92.221928 
2256.000000	92.222733 
2255.000000	92.223527 
2254.000000	92.224315 
2253.000000	92.225135 
2252.000000	92.226020 
2251.000000	92.226947 
2250.000000	92.227837 
2249.000000	92.228635 
2248.000000	92.229387 
2247.000000	92.230143 
2246.000000	92.230906 
2245.000000	92.231657 
2244.000000	92.232426 
2243.000000	92.233256 
2242.000000	92.234136 
2241.000000	92.235023 
2240.000000	92.235872 
2239.000000	92.236669 
2238.000000	92.237429 
2237.000000	92.238201 
2236.000000	92.239009 
2235.000000	92.239834 
2234.000000	92.240642 
2233.000000	92.241437 
2232.000000	92.242246 
2231.000000	92.243074 
2230.000000	92.243913 
2229.000000	92.244781 
2228.000000	92.245687 
2227.000000	92.246590 
2226.000000	92.247457 
2225.000000	92.248341 
2224.000000	92.249339 
2223.000000	92.250492 
2222.000000	92.251728 
2221.000000	92.252936 
2220.000000	92.254079 
2219.000000	92.255183 
2218.000000	92.256257 
2217.000000	92.257272 
2216.000000	92.258208 
2215.000000	92.259102 
2214.000000	92.260021 
2213.000000	92.261009 
2212.000000	92.262074 
2211.000000	92.263202 
2210.000000	92.264373 
2209.000000	92.265566 
2208.000000	92.266790 
2207.000000	92.268091 
2206.000000	92.269490 
2205.000000	92.270898 
2204.000000	92.272143 
2203.000000	92.273108 
2202.000000	92.273844 
2201.000000	92.274571 
2200.000000	92.275526 
2199.000000	92.276798 
2198.000000	92.278303 
2197.000000	92.279848 
2196.000000	92.281270 
2195.000000	92.282542 
2194.000000	92.283769 
2193.000000	92.285098 
2192.000000	92.286586 
2191.000000	92.288148 
2190.000000	92.289616 
2189.000000	92.290884 
2188.000000	92.292030 
2187.000000	92.293278 
2186.000000	92.294795 
2185.000000	92.296510 
2184.000000	92.298125 
2183.000000	92.299393 
2182.000000	92.300312 
2181.000000	92.301069 
2180.000000	92.301867 
2179.000000	92.302811 
2178.000000	92.303920 
2177.000000	92.305116 
2176.000000	92.306271 
2175.000000	92.307324 
2174.000000	92.308325 
2173.000000	92.309317 
2172.000000	92.310264 
2171.000000	92.311187 
2170.000000	92.312277 
2169.000000	92.313744 
2168.000000	92.315522 
2167.000000	92.317236 
2166.000000	92.318554 
2165.000000	92.319488 
2164.000000	92.320273 
2163.000000	92.321062 
2162.000000	92.321782 
2161.000000	92.322286 
2160.000000	92.322621 
2159.000000	92.323149 
2158.000000	92.324247 
2157.000000	92.325803 
2156.000000	92.327112 
2155.000000	92.327591 
2154.000000	92.327498 
2153.000000	92.327688 
2152.000000	92.328530 
2151.000000	92.329449 
2150.000000	92.329776 
2149.000000	92.329731 
2148.000000	92.330138 
2147.000000	92.331341 
2146.000000	92.332828 
2145.000000	92.333945 
2144.000000	92.334697 
2143.000000	92.335572 
2142.000000	92.336743 
2141.000000	92.337780 
2140.000000	92.338193 
2139.000000	92.338080 
2138.000000	92.338103 
2137.000000	92.338905 
2136.000000	92.340728 
2135.000000	92.343426 
2134.000000	92.346451 
2133.000000	92.348934 
2132.000000	92.350288 
2131.000000	92.350850 
2130.000000	92.351557 
2129.000000	92.352761 
2128.000000	92.353858 
2127.000000	92.354321 
2126.000000	92.354418 
2125.000000	92.354486 
2124.000000	92.354195 
2123.000000	92.353274 
2122.000000	92.352402 
2121.000000	92.352569 
2120.000000	92.353846 
2119.000000	92.355397 
2118.000000	92.356567 
2117.000000	92.357461 
2116.000000	92.358344 
2115.000000	92.359070 
2114.000000	92.359387 
2113.000000	92.359377 
2112.000000	92.359313 
2111.000000	92.359301 
2110.000000	92.359281 
2109.000000	92.359285 
2108.000000	92.359494 
2107.000000	92.360052 
2106.000000	92.360905 
2105.000000	92.361779 
2104.000000	92.362353 
2103.000000	92.362547 
2102.000000	92.362566 
2101.000000	92.362710 
2100.000000	92.363071 
2099.000000	92.363509 
2098.000000	92.363864 
2097.000000	92.364123 
2096.000000	92.364372 
2095.000000	92.364662 
2094.000000	92.364965 
2093.000000	92.365230 
2092.000000	92.365445 
2091.000000	92.365644 
2090.000000	92.365865 
2089.000000	92.366115 
2088.000000	92.366390 
2087.000000	92.366683 
2086.000000	92.366989 
2085.000000	92.367297 
2084.000000	92.367590 
2083.000000	92.367854 
2082.000000	92.368100 
2081.000000	92.368373 
2080.000000	92.368704 
2079.000000	92.369064 
2078.000000	92.369391 
2077.000000	92.369652 
2076.000000	92.369845 
2075.000000	92.369973 
2074.000000	92.370084 
2073.000000	92.370249 
2072.000000	92.370450 
2071.000000	92.370596 
2070.000000	92.370674 
2069.000000	92.370828 
2068.000000	92.371169 
2067.000000	92.371602 
2066.000000	92.371929 
2065.000000	92.372077 
2064.000000	92.372108 
2063.000000	92.372086 
2062.000000	92.372069 
2061.000000	92.372126 
2060.000000	92.372209 
2059.000000	92.372106 
2058.000000	92.371669 
2057.000000	92.371058 
2056.000000	92.370632 
2055.000000	92.370593 
2054.000000	92.370912 
2053.000000	92.371446 
2052.000000	92.372007 
2051.000000	92.372417 
2050.000000	92.372640 
2049.000000	92.372874 
2048.000000	92.373349 
2047.000000	92.373944 
2046.000000	92.374189 
2045.000000	92.373772 
2044.000000	92.372830 
2043.000000	92.371842 
2042.000000	92.371239 
2041.000000	92.371123 
2040.000000	92.371286 
2039.000000	92.371406 
2038.000000	92.371353 
2037.000000	92.371231 
2036.000000	92.371180 
2035.000000	92.371206 
2034.000000	92.371215 
2033.000000	92.371170 
2032.000000	92.371143 
2031.000000	92.371192 
2030.000000	92.371248 
2029.000000	92.371165 
2028.000000	92.370865 
2027.000000	92.370412 
2026.000000	92.369971 
2025.000000	92.369694 
2024.000000	92.369604 
2023.000000	92.369590 
2022.000000	92.369547 
2021.000000	92.369508 
2020.000000	92.369575 
2019.000000	92.369725 
2018.000000	92.369770 
2017.000000	92.369583 
2016.000000	92.369301 
2015.000000	92.369248 
2014.000000	92.369604 
2013.000000	92.370260 
2012.000000	92.370890 
2011.000000	92.371203 
2010.000000	92.371153 
2009.000000	92.370914 
2008.000000	92.370696 
2007.000000	92.370569 
2006.000000	92.370488 
2005.000000	92.370427 
2004.000000	92.370425 
2003.000000	92.370563 
2002.000000	92.370919 
2001.000000	92.371502 
2000.000000	92.372159 
1999.000000	92.372558 
1998.000000	92.372394 
1997.000000	92.371653 
1996.000000	92.370804 
1995.000000	92.370533 
1994.000000	92.371114 
1993.000000	92.372183 
1992.000000	92.373153 
1991.000000	92.373957 
1990.000000	92.374945 
1989.000000	92.376215 
1988.000000	92.377412 
1987.000000	92.378207 
1986.000000	92.378700 
1985.000000	92.379224 
1984.000000	92.379929 
1983.000000	92.380730 
1982.000000	92.381568 
1981.000000	92.382451 
1980.000000	92.383290 
1979.000000	92.383912 
1978.000000	92.384344 
1977.000000	92.384898 
1976.000000	92.385882 
1975.000000	92.387280 
1974.000000	92.388751 
1973.000000	92.389955 
1972.000000	92.390853 
1971.000000	92.391689 
1970.000000	92.392716 
1969.000000	92.393938 
1968.000000	92.395130 
1967.000000	92.396124 
1966.000000	92.397049 
1965.000000	92.398233 
1964.000000	92.399871 
1963.000000	92.401821 
1962.000000	92.403731 
1961.000000	92.405375 
1960.000000	92.406768 
1959.000000	92.407960 
1958.000000	92.408888 
1957.000000	92.409634 
1956.000000	92.410608 
1955.000000	92.412098 
1954.000000	92.413719 
1953.000000	92.414750 
1952.000000	92.415037 
1951.000000	92.415252 
1950.000000	92.416024 
1949.000000	92.417216 
1948.000000	92.418189 
1947.000000	92.418740 
1946.000000	92.419537 
1945.000000	92.421401 
1944.000000	92.424222 
1943.000000	92.426765 
1942.000000	92.427829 
1941.000000	92.427485 
1940.000000	92.426972 
1939.000000	92.427501 
1938.000000	92.429299 
1937.000000	92.431630 
1936.000000	92.433524 
1935.000000	92.434571 
1934.000000	92.435193 
1933.000000	92.436241 
1932.000000	92.437900 
1931.000000	92.439053 
1930.000000	92.438313 
1929.000000	92.435890 
1928.000000	92.433624 
1927.000000	92.433146 
1926.000000	92.434669 
1925.000000	92.436958 
1924.000000	92.438582 
1923.000000	92.438884 
1922.000000	92.438640 
1921.000000	92.439339 
1920.000000	92.441201 
1919.000000	92.442214 
1918.000000	92.439968 
1917.000000	92.434746 
1916.000000	92.429558 
1915.000000	92.426613 
1914.000000	92.425521 
1913.000000	92.424684 
1912.000000	92.423431 
1911.000000	92.422550 
1910.000000	92.423058 
1909.000000	92.424793 
1908.000000	92.426016 
1907.000000	92.424677 
1906.000000	92.420300 
1905.000000	92.414295 
1904.000000	92.409121 
1903.000000	92.406174 
1902.000000	92.404885 
1901.000000	92.403569 
1900.000000	92.401001 
1899.000000	92.397481 
1898.000000	92.394549 
1897.000000	92.393200 
1896.000000	92.392737 
1895.000000	92.391459 
1894.000000	92.388956 
1893.000000	92.386908 
1892.000000	92.387000 
1891.000000	92.388945 
1890.000000	92.390938 
1889.000000	92.391706 
1888.000000	92.391333 
1887.000000	92.390275 
1886.000000	92.389003 
1885.000000	92.388544 
1884.000000	92.390102 
1883.000000	92.393596 
1882.000000	92.397178 
1881.000000	92.398854 
1880.000000	92.398329 
1879.000000	92.397051 
1878.000000	92.396646 
1877.000000	92.397349 
1876.000000	92.398422 
1875.000000	92.399509 
1874.000000	92.400635 
1873.000000	92.401424 
1872.000000	92.401174 
1871.000000	92.399879 
1870.000000	92.398885 
1869.000000	92.399925 
1868.000000	92.403138 
1867.000000	92.406955 
1866.000000	92.410153 
1865.000000	92.412699 
1864.000000	92.414917 
1863.000000	92.417021 
1862.000000	92.419246 
1861.000000	92.421715 
1860.000000	92.423952 
1859.000000	92.425215 
1858.000000	92.425604 
1857.000000	92.426088 
1856.000000	92.427419 
1855.000000	92.429587 
1854.000000	92.432213 
1853.000000	92.435050 
1852.000000	92.437864 
1851.000000	92.440066 
1850.000000	92.441340 
1849.000000	92.441955 
1848.000000	92.442535 
1847.000000	92.443585 
1846.000000	92.445447 
1845.000000	92.448324 
1844.000000	92.451946 
1843.000000	92.455478 
1842.000000	92.457955 
1841.000000	92.459053 
1840.000000	92.459357 
1839.000000	92.459971 
1838.000000	92.461723 
1837.000000	92.464380 
1836.000000	92.466981 
1835.000000	92.468874 
1834.000000	92.470342 
1833.000000	92.472395 
1832.000000	92.475853 
1831.000000	92.479938 
1830.000000	92.482375 
1829.000000	92.481920 
1828.000000	92.480367 
1827.000000	92.480058 
1826.000000	92.480900 
1825.000000	92.480927 
1824.000000	92.479352 
1823.000000	92.477739 
1822.000000	92.477792 
1821.000000	92.479873 
1820.000000	92.483639 
1819.000000	92.488513 
1818.000000	92.492946 
1817.000000	92.494974 
1816.000000	92.495069 
1815.000000	92.495989 
1814.000000	92.498854 
1813.000000	92.501470 
1812.000000	92.501733 
1811.000000	92.501166 
1810.000000	92.502861 
1809.000000	92.507975 
1808.000000	92.514982 
1807.000000	92.521483 
1806.000000	92.526935 
1805.000000	92.532643 
1804.000000	92.538769 
1803.000000	92.542518 
1802.000000	92.541255 
1801.000000	92.537348 
1800.000000	92.535330 
1799.000000	92.537017 
1798.000000	92.541308 
1797.000000	92.546592 
1796.000000	92.551441 
1795.000000	92.555406 
1794.000000	92.560123 
1793.000000	92.568208 
1792.000000	92.579857 
1791.000000	92.590575 
1790.000000	92.594606 
1789.000000	92.593051 
1788.000000	92.593414 
1787.000000	92.600858 
1786.000000	92.612958 
1785.000000	92.623551 
1784.000000	92.630395 
1783.000000	92.636702 
1782.000000	92.645717 
1781.000000	92.655951 
1780.000000	92.661420 
1779.000000	92.660692 
1778.000000	92.659300 
1777.000000	92.662086 
1776.000000	92.667634 
1775.000000	92.673875 
1774.000000	92.684694 
1773.000000	92.704561 
1772.000000	92.729012 
1771.000000	92.750767 
1770.000000	92.770497 
1769.000000	92.791981 
1768.000000	92.815717 
1767.000000	92.838412 
1766.000000	92.857897 
1765.000000	92.876830 
1764.000000	92.899306 
1763.000000	92.926545 
1762.000000	92.955131 
1761.000000	92.980241 
1760.000000	93.000667 
1759.000000	93.020390 
1758.000000	93.043094 
1757.000000	93.066823 
1756.000000	93.084918 
1755.000000	93.096524 
1754.000000	93.108904 
1753.000000	93.127097 
1752.000000	93.147707 
1751.000000	93.165667 
1750.000000	93.182273 
1749.000000	93.200182 
1748.000000	93.218652 
1747.000000	93.235881 
1746.000000	93.253844 
1745.000000	93.275000 
1744.000000	93.296737 
1743.000000	93.314283 
1742.000000	93.326425 
1741.000000	93.336867 
1740.000000	93.348223 
1739.000000	93.357440 
1738.000000	93.359792 
1737.000000	93.354077 
1736.000000	93.339676 
1735.000000	93.312097 
1734.000000	93.272482 
1733.000000	93.239945 
1732.000000	93.226628 
1731.000000	93.226615 
1730.000000	93.231025 
1729.000000	93.232261 
1728.000000	93.225927 
1727.000000	93.212706 
1726.000000	93.196635 
1725.000000	93.180673 
1724.000000	93.165411 
1723.000000	93.151618 
1722.000000	93.139146 
1721.000000	93.127086 
1720.000000	93.113759 
1719.000000	93.094918 
1718.000000	93.065193 
1717.000000	93.030600 
1716.000000	93.006520 
1715.000000	92.993979 
1714.000000	92.981981 
1713.000000	92.963680 
1712.000000	92.940057 
1711.000000	92.914151 
1710.000000	92.886930 
1709.000000	92.859470 
1708.000000	92.834371 
1707.000000	92.813043 
1706.000000	92.793895 
1705.000000	92.774201 
1704.000000	92.753556 
1703.000000	92.731243 
1702.000000	92.707397 
1701.000000	92.686826 
1700.000000	92.675242 
1699.000000	92.672320 
1698.000000	92.672274 
1697.000000	92.676351 
1696.000000	92.686488 
1695.000000	92.696157 
1694.000000	92.697062 
1693.000000	92.689549 
1692.000000	92.681048 
1691.000000	92.677631 
1690.000000	92.679889 
1689.000000	92.683824 
1688.000000	92.684759 
1687.000000	92.682604 
1686.000000	92.684101 
1685.000000	92.694135 
1684.000000	92.703986 
1683.000000	92.705316 
1682.000000	92.702059 
1681.000000	92.698580 
1680.000000	92.696105 
1679.000000	92.695628 
1678.000000	92.700155 
1677.000000	92.711437 
1676.000000	92.723869 
1675.000000	92.729183 
1674.000000	92.728649 
1673.000000	92.728740 
1672.000000	92.730173 
1671.000000	92.731836 
1670.000000	92.735402 
1669.000000	92.744514 
1668.000000	92.756885 
1667.000000	92.764382 
1666.000000	92.763421 
1665.000000	92.757845 
1664.000000	92.754112 
1663.000000	92.755420 
1662.000000	92.760451 
1661.000000	92.767488 
1660.000000	92.774319 
1659.000000	92.779783 
1658.000000	92.784624 
1657.000000	92.789079 
1656.000000	92.790823 
1655.000000	92.788236 
1654.000000	92.782937 
1653.000000	92.777200 
1652.000000	92.778450 
1651.000000	92.785113 
1650.000000	92.789003 
1649.000000	92.789499 
1648.000000	92.788580 
1647.000000	92.786744 
1646.000000	92.785547 
1645.000000	92.786810 
1644.000000	92.789161 
1643.000000	92.790038 
1642.000000	92.788172 
1641.000000	92.784281 
1640.000000	92.779935 
1639.000000	92.776338 
1638.000000	92.773699 
1637.000000	92.771834 
1636.000000	92.770477 
1635.000000	92.770287 
1634.000000	92.772687 
1633.000000	92.775195 
1632.000000	92.775603 
1631.000000	92.774453 
1630.000000	92.773246 
1629.000000	92.773031 
1628.000000	92.773365 
1627.000000	92.772625 
1626.000000	92.769822 
1625.000000	92.765866 
1624.000000	92.762739 
1623.000000	92.761866 
1622.000000	92.762892 
1621.000000	92.763973 
1620.000000	92.763254 
1619.000000	92.761133 
1618.000000	92.759875 
1617.000000	92.760298 
1616.000000	92.760349 
1615.000000	92.758366 
1614.000000	92.755047 
1613.000000	92.752309 
1612.000000	92.751675 
1611.000000	92.753016 
1610.000000	92.755293 
1609.000000	92.757638 
1608.000000	92.759096 
1607.000000	92.758923 
1606.000000	92.757534 
1605.000000	92.756229 
1604.000000	92.755396 
1603.000000	92.754901 
1602.000000	92.755034 
1601.000000	92.755789 
1600.000000	92.756804 
1599.000000	92.758108 
1598.000000	92.760323 
1597.000000	92.763239 
1596.000000	92.765730 
1595.000000	92.767541 
1594.000000	92.769691 
1593.000000	92.772667 
1592.000000	92.775454 
1591.000000	92.777012 
1590.000000	92.777621 
1589.000000	92.778131 
1588.000000	92.778770 
1587.000000	92.779423 
1586.000000	92.780271 
1585.000000	92.781563 
1584.000000	92.783029 
1583.000000	92.784275 
1582.000000	92.785764 
1581.000000	92.787982 
1580.000000	92.790468 
1579.000000	92.792596 
1578.000000	92.794699 
1577.000000	92.797211 
1576.000000	92.799312 
1575.000000	92.800183 
1574.000000	92.800282 
1573.000000	92.800236 
1572.000000	92.800252 
1571.000000	92.800692 
1570.000000	92.802144 
1569.000000	92.804756 
1568.000000	92.807531 
1567.000000	92.809328 
1566.000000	92.810419 
1565.000000	92.811928 
1564.000000	92.814154 
1563.000000	92.816257 
1562.000000	92.817723 
1561.000000	92.818662 
1560.000000	92.819076 
1559.000000	92.817340 
1558.000000	92.815907 
1557.000000	92.819346 
1556.000000	92.823953 
1555.000000	92.825292 
1554.000000	92.823803 
1553.000000	92.823118 
1552.000000	92.825162 
1551.000000	92.828013 
1550.000000	92.829100 
1549.000000	92.828094 
1548.000000	92.826728 
1547.000000	92.825942 
1546.000000	92.825782 
1545.000000	92.826566 
1544.000000	92.828470 
1543.000000	92.830743 
1542.000000	92.833170 
1541.000000	92.835509 
1540.000000	92.833105 
1539.000000	92.824507 
1538.000000	92.816700 
1537.000000	92.812262 
1536.000000	92.809271 
1535.000000	92.806317 
1534.000000	92.803890 
1533.000000	92.803910 
1532.000000	92.805810 
1531.000000	92.806295 
1530.000000	92.804482 
1529.000000	92.803480 
1528.000000	92.806196 
1527.000000	92.811681 
1526.000000	92.816524 
1525.000000	92.819128 
1524.000000	92.820228 
1523.000000	92.821086 
1522.000000	92.822379 
1521.000000	92.824264 
1520.000000	92.826624 
1519.000000	92.828917 
1518.000000	92.832214 
1517.000000	92.837131 
1516.000000	92.841457 
1515.000000	92.843808 
1514.000000	92.845868 
1513.000000	92.849395 
1512.000000	92.853821 
1511.000000	92.857343 
1510.000000	92.859253 
1509.000000	92.860708 
1508.000000	92.864551 
1507.000000	92.870814 
1506.000000	92.874514 
1505.000000	92.875933 
1504.000000	92.878044 
1503.000000	92.882054 
1502.000000	92.888448 
1501.000000	92.896456 
1500.000000	92.904999 
1499.000000	92.914661 
1498.000000	92.926306 
1497.000000	92.937661 
1496.000000	92.944026 
1495.000000	92.943382 
1494.000000	92.938436 
1493.000000	92.934285 
1492.000000	92.934611 
1491.000000	92.940159 
1490.000000	92.948782 
1489.000000	92.957528 
1488.000000	92.964776 
1487.000000	92.970769 
1486.000000	92.976973 
1485.000000	92.984546 
1484.000000	92.992921 
1483.000000	93.000413 
1482.000000	93.006296 
1481.000000	93.011598 
1480.000000	93.018522 
1479.000000	93.028294 
1478.000000	93.039995 
1477.000000	93.050630 
1476.000000	93.057483 
1475.000000	93.060022 
1474.000000	93.061213 
1473.000000	93.065931 
1472.000000	93.074054 
1471.000000	93.080747 
1470.000000	93.084396 
1469.000000	93.088231 
1468.000000	93.094398 
1467.000000	93.101533 
1466.000000	93.109301 
1465.000000	93.121204 
1464.000000	93.138049 
1463.000000	93.154557 
1462.000000	93.166441 
1461.000000	93.175814 
1460.000000	93.188050 
1459.000000	93.207032 
1458.000000	93.232412 
1457.000000	93.258504 
1456.000000	93.279006 
1455.000000	93.290833 
1454.000000	93.296813 
1453.000000	93.302645 
1452.000000	93.308433 
1451.000000	93.310151 
1450.000000	93.305780 
1449.000000	93.297041 
1448.000000	93.286749 
1447.000000	93.276863 
1446.000000	93.269938 
1445.000000	93.268545 
1444.000000	93.271317 
1443.000000	93.273991 
1442.000000	93.273809 
1441.000000	93.272603 
1440.000000	93.275683 
1439.000000	93.287358 
1438.000000	93.305587 
1437.000000	93.320640 
1436.000000	93.324652 
1435.000000	93.320796 
1434.000000	93.317630 
1433.000000	93.321075 
1432.000000	93.331876 
1431.000000	93.346857 
1430.000000	93.361210 
1429.000000	93.370997 
1428.000000	93.376293 
1427.000000	93.380613 
1426.000000	93.387738 
1425.000000	93.398256 
1424.000000	93.409465 
1423.000000	93.420261 
1422.000000	93.432745 
1421.000000	93.449437 
1420.000000	93.469650 
1419.000000	93.489280 
1418.000000	93.505757 
1417.000000	93.521496 
1416.000000	93.540961 
1415.000000	93.564785 
1414.000000	93.588888 
1413.000000	93.609381 
1412.000000	93.626971 
1411.000000	93.645548 
1410.000000	93.666118 
1409.000000	93.685570 
1408.000000	93.701523 
1407.000000	93.713921 
1406.000000	93.722766 
1405.000000	93.727103 
1404.000000	93.726305 
1403.000000	93.721506 
1402.000000	93.714291 
1401.000000	93.705325 
1400.000000	93.694979 
1399.000000	93.687257 
1398.000000	93.691386 
1397.000000	93.716209 
1396.000000	93.762211 
1395.000000	93.813339 
1394.000000	93.842314 
1393.000000	93.835857 
1392.000000	93.806658 
1391.000000	93.777909 
1390.000000	93.765416 
1389.000000	93.773390 
1388.000000	93.798769 
1387.000000	93.835000 
1386.000000	93.873284 
1385.000000	93.906781 
1384.000000	93.933751 
1383.000000	93.955946 
1382.000000	93.975990 
1381.000000	93.995449 
1380.000000	94.012115 
1379.000000	94.020600 
1378.000000	94.018582 
1377.000000	94.010394 
1376.000000	94.002356 
1375.000000	93.996199 
1374.000000	93.988672 
1373.000000	93.975815 
1372.000000	93.955946 
1371.000000	93.930709 
1370.000000	93.905067 
1369.000000	93.884511 
1368.000000	93.871766 
1367.000000	93.864169 
1366.000000	93.854549 
1365.000000	93.836823 
1364.000000	93.810733 
1363.000000	93.782948 
1362.000000	93.761001 
1361.000000	93.744496 
1360.000000	93.727823 
1359.000000	93.710198 
1358.000000	93.696619 
1357.000000	93.689943 
1356.000000	93.686360 
1355.000000	93.680318 
1354.000000	93.670841 
1353.000000	93.660366 
1352.000000	93.648933 
1351.000000	93.634523 
1350.000000	93.618914 
1349.000000	93.606246 
1348.000000	93.597705 
1347.000000	93.591210 
1346.000000	93.584833 
1345.000000	93.577842 
1344.000000	93.569255 
1343.000000	93.558315 
1342.000000	93.545824 
1341.000000	93.533016 
1340.000000	93.520128 
1339.000000	93.507417 
1338.000000	93.495394 
1337.000000	93.483571 
1336.000000	93.470998 
1335.000000	93.458386 
1334.000000	93.448665 
1333.000000	93.444383 
1332.000000	93.444733 
1331.000000	93.446405 
1330.000000	93.446546 
1329.000000	93.444141 
1328.000000	93.440178 
1327.000000	93.437842 
1326.000000	93.440289 
1325.000000	93.445662 
1324.000000	93.447483 
1323.000000	93.441383 
1322.000000	93.429588 
1321.000000	93.417985 
1320.000000	93.410586 
1319.000000	93.408205 
1318.000000	93.410387 
1317.000000	93.416404 
1316.000000	93.424164 
1315.000000	93.429884 
1314.000000	93.430432 
1313.000000	93.426567 
1312.000000	93.422742 
1311.000000	93.422485 
1310.000000	93.424409 
1309.000000	93.424220 
1308.000000	93.420503 
1307.000000	93.416767 
1306.000000	93.416901 
1305.000000	93.420022 
1304.000000	93.422324 
1303.000000	93.422281 
1302.000000	93.421701 
1301.000000	93.422163 
1300.000000	93.422667 
1299.000000	93.421174 
1298.000000	93.416988 
1297.000000	93.411559 
1296.000000	93.407798 
1295.000000	93.408460 
1294.000000	93.413646 
1293.000000	93.419997 
1292.000000	93.423655 
1291.000000	93.423938 
1290.000000	93.423208 
1289.000000	93.423493 
1288.000000	93.424541 
1287.000000	93.425018 
1286.000000	93.424332 
1285.000000	93.423705 
1284.000000	93.426440 
1283.000000	93.435616 
1282.000000	93.450261 
1281.000000	93.464959 
1280.000000	93.474195 
1279.000000	93.477316 
1278.000000	93.478096 
1277.000000	93.480287 
1276.000000	93.485222 
1275.000000	93.492905 
1274.000000	93.502835 
1273.000000	93.513387 
1272.000000	93.522463 
1271.000000	93.529847 
1270.000000	93.537846 
1269.000000	93.549071 
1268.000000	93.564810 
1267.000000	93.585186 
1266.000000	93.608325 
1265.000000	93.629217 
1264.000000	93.642381 
1263.000000	93.647343 
1262.000000	93.649814 
1261.000000	93.655781 
1260.000000	93.665793 
1259.000000	93.676381 
1258.000000	93.685521 
1257.000000	93.694777 
1256.000000	93.706224 
1255.000000	93.718932 
1254.000000	93.729370 
1253.000000	93.734943 
1252.000000	93.736352 
1251.000000	93.736045 
1250.000000	93.734486 
1249.000000	93.728730 
1248.000000	93.715523 
1247.000000	93.695902 
1246.000000	93.676962 
1245.000000	93.669360 
1244.000000	93.680965 
1243.000000	93.708619 
1242.000000	93.735568 
1241.000000	93.742909 
1240.000000	93.727901 
1239.000000	93.708914 
1238.000000	93.708597 
1237.000000	93.733322 
1236.000000	93.772184 
1235.000000	93.812757 
1234.000000	93.851486 
1233.000000	93.888709 
1232.000000	93.920018 
1231.000000	93.936649 
1230.000000	93.932786 
1229.000000	93.910598 
1228.000000	93.878820 
1227.000000	93.845844 
1226.000000	93.811580 
1225.000000	93.766734 
1224.000000	93.704199 
1223.000000	93.631916 
1222.000000	93.570735 
1221.000000	93.537350 
1220.000000	93.530900 
1219.000000	93.535169 
1218.000000	93.529760 
1217.000000	93.499707 
1216.000000	93.440388 
1215.000000	93.358413 
1214.000000	93.267248 
1213.000000	93.179154 
1212.000000	93.100412 
1211.000000	93.031959 
1210.000000	92.970999 
1209.000000	92.912481 
1208.000000	92.853007 
1207.000000	92.794319 
1206.000000	92.740421 
1205.000000	92.690956 
1204.000000	92.640004 
1203.000000	92.581652 
1202.000000	92.514509 
1201.000000	92.441075 
1200.000000	92.365520 
1199.000000	92.291892 
1198.000000	92.221407 
1197.000000	92.151485 
1196.000000	92.079622 
1195.000000	92.007043 
1194.000000	91.936153 
1193.000000	91.866470 
1192.000000	91.797008 
1191.000000	91.730701 
1190.000000	91.671492 
1189.000000	91.617971 
1188.000000	91.564605 
1187.000000	91.508511 
1186.000000	91.450233 
1185.000000	91.388698 
1184.000000	91.321418 
1183.000000	91.250819 
1182.000000	91.185031 
1181.000000	91.129735 
1180.000000	91.082107 
1179.000000	91.033911 
1178.000000	90.977684 
1177.000000	90.909618 
1176.000000	90.830318 
1175.000000	90.744896 
1174.000000	90.660016 
1173.000000	90.579239 
1172.000000	90.502669 
1171.000000	90.430535 
1170.000000	90.364073 
1169.000000	90.303042 
1168.000000	90.245489 
1167.000000	90.190608 
1166.000000	90.140218 
1165.000000	90.098212 
1164.000000	90.070631 
1163.000000	90.064523 
1162.000000	90.082947 
1161.000000	90.120527 
1160.000000	90.165572 
1159.000000	90.206449 
1158.000000	90.235078 
1157.000000	90.246283 
1156.000000	90.237418 
1155.000000	90.209654 
1154.000000	90.167907 
1153.000000	90.118301 
1152.000000	90.065566 
1151.000000	90.011668 
1150.000000	89.955870 
1149.000000	89.897425 
1148.000000	89.839229 
1147.000000	89.786545 
1146.000000	89.740505 
1145.000000	89.695837 
1144.000000	89.647616 
1143.000000	89.597395 
1142.000000	89.549554 
1141.000000	89.504498 
1140.000000	89.459550 
1139.000000	89.414164 
1138.000000	89.369622 
1137.000000	89.325042 
1136.000000	89.278123 
1135.000000	89.229242 
1134.000000	89.181138 
1133.000000	89.135160 
1132.000000	89.090779 
1131.000000	89.047387 
1130.000000	89.003307 
1129.000000	88.954828 
1128.000000	88.900207 
1127.000000	88.843611 
1126.000000	88.791211 
1125.000000	88.744041 
1124.000000	88.698034 
1123.000000	88.650295 
1122.000000	88.602318 
1121.000000	88.558109 
1120.000000	88.521988 
1119.000000	88.496558 
1118.000000	88.479260 
1117.000000	88.462036 
1116.000000	88.437607 
1115.000000	88.405788 
1114.000000	88.372196 
1113.000000	88.342979 
1112.000000	88.322767 
1111.000000	88.314071 
1110.000000	88.314740 
1109.000000	88.317905 
1108.000000	88.317480 
1107.000000	88.312920 
1106.000000	88.306999 
1105.000000	88.301119 
1104.000000	88.296384 
1103.000000	88.296678 
1102.000000	88.305622 
1101.000000	88.320747 
1100.000000	88.336374 
1099.000000	88.350653 
1098.000000	88.366181 
1097.000000	88.384029 
1096.000000	88.399812 
1095.000000	88.408721 
1094.000000	88.411454 
1093.000000	88.413436 
1092.000000	88.419209 
1091.000000	88.429104 
1090.000000	88.440339 
1089.000000	88.449644 
1088.000000	88.454936 
1087.000000	88.456190 
1086.000000	88.455981 
1085.000000	88.458728 
1084.000000	88.468204 
1083.000000	88.485005 
1082.000000	88.506254 
1081.000000	88.527285 
1080.000000	88.543115 
1079.000000	88.549528 
1078.000000	88.545256 
1077.000000	88.533206 
1076.000000	88.516940 
1075.000000	88.494653 
1074.000000	88.458473 
1073.000000	88.401629 
1072.000000	88.326853 
1071.000000	88.248873 
1070.000000	88.189044 
1069.000000	88.162420 
1068.000000	88.161477 
1067.000000	88.150592 
1066.000000	88.086522 
1065.000000	87.954192 
1064.000000	87.782314 
1063.000000	87.622041 
1062.000000	87.512343 
1061.000000	87.465892 
1060.000000	87.475766 
1059.000000	87.521145 
1058.000000	87.570834 
1057.000000	87.598194 
1056.000000	87.598199 
1055.000000	87.583533 
1054.000000	87.563157 
1053.000000	87.530754 
1052.000000	87.473301 
1051.000000	87.381774 
1050.000000	87.252611 
1049.000000	87.089344 
1048.000000	86.906084 
1047.000000	86.719294 
1046.000000	86.532062 
1045.000000	86.335065 
1044.000000	86.125008 
1043.000000	85.912340 
1042.000000	85.707701 
1041.000000	85.510755 
1040.000000	85.317436 
1039.000000	85.128409 
1038.000000	84.944293 
1037.000000	84.762209 
1036.000000	84.584205 
1035.000000	84.419863 
1034.000000	84.273252 
1033.000000	84.137763 
1032.000000	84.013928 
1031.000000	83.922660 
1030.000000	83.885699 
1029.000000	83.894231 
1028.000000	83.906314 
1027.000000	83.878258 
1026.000000	83.798104 
1025.000000	83.691296 
1024.000000	83.598372 
1023.000000	83.545151 
1022.000000	83.527096 
1021.000000	83.519139 
1020.000000	83.499993 
1019.000000	83.465519 
1018.000000	83.423181 
1017.000000	83.382581 
1016.000000	83.352128 
1015.000000	83.335517 
1014.000000	83.326263 
1013.000000	83.310900 
1012.000000	83.281160 
1011.000000	83.239374 
1010.000000	83.191929 
1009.000000	83.144367 
1008.000000	83.104077 
1007.000000	83.078914 
1006.000000	83.068210 
1005.000000	83.061341 
1004.000000	83.049895 
1003.000000	83.036786 
1002.000000	83.030213 
1001.000000	83.033582 
1000.000000	83.044574 
999.000000	 83.059581 
998.000000	 83.075789 
997.000000	 83.092234 
996.000000	 83.110813 
995.000000	 83.133466 
994.000000	 83.158056 
993.000000	 83.180725 
992.000000	 83.201997 
991.000000	 83.226001 
990.000000	 83.254175 
989.000000	 83.284817 
988.000000	 83.318350 
987.000000	 83.357630 
986.000000	 83.403330 
985.000000	 83.454406 
984.000000	 83.511928 
983.000000	 83.577460 
982.000000	 83.650610 
981.000000	 83.732992 
980.000000	 83.829550 
979.000000	 83.939024 
978.000000	 84.048216 
977.000000	 84.145329 
976.000000	 84.236218 
975.000000	 84.337350 
974.000000	 84.454755 
973.000000	 84.579973 
972.000000	 84.705134 
971.000000	 84.830992 
970.000000	 84.959705 
969.000000	 85.090346 
968.000000	 85.223084 
967.000000	 85.358759 
966.000000	 85.493440 
965.000000	 85.622331 
964.000000	 85.749400 
963.000000	 85.883190 
962.000000	 86.021606 
961.000000	 86.151152 
960.000000	 86.264384 
959.000000	 86.368923 
958.000000	 86.475481 
957.000000	 86.585010 
956.000000	 86.692314 
955.000000	 86.794986 
954.000000	 86.892830 
953.000000	 86.983504 
952.000000	 87.064665 
951.000000	 87.138420 
950.000000	 87.210205 
949.000000	 87.284294 
948.000000	 87.361099 
947.000000	 87.436480 
946.000000	 87.503720 
945.000000	 87.559335 
944.000000	 87.606693 
943.000000	 87.650984 
942.000000	 87.692512 
941.000000	 87.729822 
940.000000	 87.767053 
939.000000	 87.810769 
938.000000	 87.859649 
937.000000	 87.904834 
936.000000	 87.941795 
935.000000	 87.975360 
934.000000	 88.011969 
933.000000	 88.053337 
932.000000	 88.099009 
931.000000	 88.148466 
930.000000	 88.198772 
929.000000	 88.246402 
928.000000	 88.292967 
927.000000	 88.342789 
926.000000	 88.393626 
925.000000	 88.437372 
924.000000	 88.472394 
923.000000	 88.507637 
922.000000	 88.550729 
921.000000	 88.598705 
920.000000	 88.644793 
919.000000	 88.688242 
918.000000	 88.732398 
917.000000	 88.778029 
916.000000	 88.823823 
915.000000	 88.870217 
914.000000	 88.918621 
913.000000	 88.969831 
912.000000	 89.026063 
911.000000	 89.090872 
910.000000	 89.164498 
909.000000	 89.243177 
908.000000	 89.325592 
907.000000	 89.416325 
906.000000	 89.520363 
905.000000	 89.637218 
904.000000	 89.761840 
903.000000	 89.887862 
902.000000	 90.009568 
901.000000	 90.125870 
900.000000	 90.243592 
899.000000	 90.371472 
898.000000	 90.508596 
897.000000	 90.644217 
896.000000	 90.771531 
895.000000	 90.895300 
894.000000	 91.021654 
893.000000	 91.145786 
892.000000	 91.256355 
891.000000	 91.349831 
890.000000	 91.435072 
889.000000	 91.524380 
888.000000	 91.623813 
887.000000	 91.731222 
886.000000	 91.839370 
885.000000	 91.941090 
884.000000	 92.035046 
883.000000	 92.126507 
882.000000	 92.219000 
881.000000	 92.304809 
880.000000	 92.367294 
879.000000	 92.394582 
878.000000	 92.390547 
877.000000	 92.373428 
876.000000	 92.365440 
875.000000	 92.381003 
874.000000	 92.418714 
873.000000	 92.462958 
872.000000	 92.497973 
871.000000	 92.523680 
870.000000	 92.555975 
869.000000	 92.609742 
868.000000	 92.683573 
867.000000	 92.762095 
866.000000	 92.830756 
865.000000	 92.886707 
864.000000	 92.937575 
863.000000	 92.992990 
862.000000	 93.056652 
861.000000	 93.123523 
860.000000	 93.183907 
859.000000	 93.231624 
858.000000	 93.268465 
857.000000	 93.300102 
856.000000	 93.329618 
855.000000	 93.358011 
854.000000	 93.389124 
853.000000	 93.428125 
852.000000	 93.473192 
851.000000	 93.514130 
850.000000	 93.544150 
849.000000	 93.569888 
848.000000	 93.603617 
847.000000	 93.645837 
846.000000	 93.681703 
845.000000	 93.697111 
844.000000	 93.694009 
843.000000	 93.687112 
842.000000	 93.688688 
841.000000	 93.699739 
840.000000	 93.712856 
839.000000	 93.717922 
838.000000	 93.706096 
837.000000	 93.675337 
836.000000	 93.635506 
835.000000	 93.604085 
834.000000	 93.591756 
833.000000	 93.592589 
832.000000	 93.591211 
831.000000	 93.578888 
830.000000	 93.560628 
829.000000	 93.548197 
828.000000	 93.549950 
827.000000	 93.567327 
826.000000	 93.595665 
825.000000	 93.624159 
824.000000	 93.637833 
823.000000	 93.626385 
822.000000	 93.593747 
821.000000	 93.555222 
820.000000	 93.522338 
819.000000	 93.492076 
818.000000	 93.452394 
817.000000	 93.396292 
816.000000	 93.327266 
815.000000	 93.251541 
814.000000	 93.169538 
813.000000	 93.077232 
812.000000	 92.970681 
811.000000	 92.842359 
810.000000	 92.675248 
809.000000	 92.450172 
808.000000	 92.163706 
807.000000	 91.834666 
806.000000	 91.489324 
805.000000	 91.144029 
804.000000	 90.805578 
803.000000	 90.481565 
802.000000	 90.182372 
801.000000	 89.917078 
800.000000	 89.694703 
799.000000	 89.526670 
798.000000	 89.421846 
797.000000	 89.380570 
796.000000	 89.395653 
795.000000	 89.454069 
794.000000	 89.535023 
793.000000	 89.614426 
792.000000	 89.678758 
791.000000	 89.731530 
790.000000	 89.780723 
789.000000	 89.821981 
788.000000	 89.838864 
787.000000	 89.818314 
786.000000	 89.761564 
785.000000	 89.679706 
784.000000	 89.582174 
783.000000	 89.471126 
782.000000	 89.346391 
781.000000	 89.216389 
780.000000	 89.103527 
779.000000	 89.034777 
778.000000	 89.024147 
777.000000	 89.065852 
776.000000	 89.144172 
775.000000	 89.245650 
774.000000	 89.361646 
773.000000	 89.485668 
772.000000	 89.612596 
771.000000	 89.738067 
770.000000	 89.856831 
769.000000	 89.964721 
768.000000	 90.063509 
767.000000	 90.159838 
766.000000	 90.256521 
765.000000	 90.347376 
764.000000	 90.423160 
763.000000	 90.480845 
762.000000	 90.525615 
761.000000	 90.565955 
760.000000	 90.608708 
759.000000	 90.656970 
758.000000	 90.709886 
757.000000	 90.764475 
756.000000	 90.818358 
755.000000	 90.870247 
754.000000	 90.918853 
753.000000	 90.964486 
752.000000	 91.012382 
751.000000	 91.070977 
750.000000	 91.144617 
749.000000	 91.228850 
748.000000	 91.313852 
747.000000	 91.391713 
746.000000	 91.460657 
745.000000	 91.524638 
744.000000	 91.589756 
743.000000	 91.659729 
742.000000	 91.734488 
741.000000	 91.813499 
740.000000	 91.898130 
739.000000	 91.988511 
738.000000	 92.079947 
737.000000	 92.165547 
736.000000	 92.241638 
735.000000	 92.306860 
734.000000	 92.358291 
733.000000	 92.395013 
732.000000	 92.424473 
731.000000	 92.458409 
730.000000	 92.502133 
729.000000	 92.553516 
728.000000	 92.607852 
727.000000	 92.658678 
726.000000	 92.699039 
725.000000	 92.726580 
724.000000	 92.747567 
723.000000	 92.772385 
722.000000	 92.806306 
721.000000	 92.847288 
720.000000	 92.891123 
719.000000	 92.935074 
718.000000	 92.977051 
717.000000	 93.014753 
716.000000	 93.047381 
715.000000	 93.074992 
714.000000	 93.095601 
713.000000	 93.107129 
712.000000	 93.111988 
711.000000	 93.115607 
710.000000	 93.120495 
709.000000	 93.126159 
708.000000	 93.130056 
707.000000	 93.127554 
706.000000	 93.115207 
705.000000	 93.093792 
704.000000	 93.064376 
703.000000	 93.022452 
702.000000	 92.955741 
701.000000	 92.853182 
700.000000	 92.716594 
699.000000	 92.554022 
698.000000	 92.369791 
697.000000	 92.171966 
696.000000	 91.990082 
695.000000	 91.875360 
694.000000	 91.865195 
693.000000	 91.953081 
692.000000	 92.097924 
691.000000	 92.254040 
690.000000	 92.395434 
689.000000	 92.514777 
688.000000	 92.611483 
687.000000	 92.689329 
686.000000	 92.753842 
685.000000	 92.809974 
684.000000	 92.863818 
683.000000	 92.920652 
682.000000	 92.981877 
681.000000	 93.045588 
680.000000	 93.109711 
679.000000	 93.168832 
678.000000	 93.212911 
677.000000	 93.243155 
676.000000	 93.275838 
675.000000	 93.320034 
674.000000	 93.365214 
673.000000	 93.391564 
672.000000	 93.385887 
671.000000	 93.336628 
670.000000	 93.238121 
669.000000	 93.116364 
668.000000	 93.095131 
667.000000	 93.229682 
666.000000	 93.407321 
665.000000	 93.551963 
664.000000	 93.668819 
663.000000	 93.762364 
662.000000	 93.830538 
661.000000	 93.874141 
660.000000	 93.902533 
659.000000	 93.925495 
658.000000	 93.950767 
657.000000	 93.985125 
656.000000	 94.021342 
655.000000	 94.038297 
654.000000	 94.031368 
653.000000	 94.018975 
652.000000	 94.008732 
651.000000	 93.988769 
650.000000	 93.960659 

